 ====================================================================================
               Transient state solution for a 2D rectangular plate
                    for applications in steel reheating
                 e.g. Reheating furnaces for rolling processing
 ====================================================================================
 Author: Dickson Alves de Souza

 Based on lectures by professor Roberto Parreiras Tavares

 and book Numerical Heat Transfer and Fluid Flow
 by Suhas V. Patankar (1980)

 Federal University of Minas Gerais (UFMG)
 October 26th, 2017
 ====================================================================================
                              Input parameters:

 Lenght in X direction (meters):           1.0000
 Lenght in Y direction (meters):           0.2000
 Nodes in X direction:                         31
 Nodes in Y direction:                         31
 ====================================================================================

                       STAGE                1/  5
                       START Time:         0.0000
                       END Time:        1140.0000
                       Iterations:             1189

 ====================================================================================
 Temperature of fluid at left face (T left):             1223.1500
 Temperature of fluid at right face (T right):           1223.1500
 Temperature of fluid at bottom face (T bottom):         1223.1500
 Temperature of fluid at top face (T top):               1223.1500
 ------------------------------------------------------------------------------------
 Heat transfer coefficient at left face (H left):          50.0000
 Heat transfer coefficient at right face (H right):        50.0000
 Heat transfer coefficient at bottom face (H bottom):       8.0000
 Heat transfer coefficient at top face (H top):           150.0000
 ====================================================================================


 ====================================================================================

                       STAGE                2/  5
                       START Time:      1140.0000
                       END Time:        3060.0000
                       Iterations:             1189

 ====================================================================================
 Temperature of fluid at left face (T left):             1423.1500
 Temperature of fluid at right face (T right):           1423.1500
 Temperature of fluid at bottom face (T bottom):         1423.1500
 Temperature of fluid at top face (T top):               1423.1500
 ------------------------------------------------------------------------------------
 Heat transfer coefficient at left face (H left):          50.0000
 Heat transfer coefficient at right face (H right):        50.0000
 Heat transfer coefficient at bottom face (H bottom):       8.0000
 Heat transfer coefficient at top face (H top):           150.0000
 ====================================================================================


 ====================================================================================

                       STAGE                3/  5
                       START Time:      3060.0000
                       END Time:        4980.0000
                       Iterations:             1189

 ====================================================================================
 Temperature of fluid at left face (T left):             1513.1500
 Temperature of fluid at right face (T right):           1513.1500
 Temperature of fluid at bottom face (T bottom):         1513.1500
 Temperature of fluid at top face (T top):               1513.1500
 ------------------------------------------------------------------------------------
 Heat transfer coefficient at left face (H left):          50.0000
 Heat transfer coefficient at right face (H right):        50.0000
 Heat transfer coefficient at bottom face (H bottom):       8.0000
 Heat transfer coefficient at top face (H top):           150.0000
 ====================================================================================


 ====================================================================================

                       STAGE                4/  5
                       START Time:      4980.0000
                       END Time:        8400.0000
                       Iterations:             1189

 ====================================================================================
 Temperature of fluid at left face (T left):             1503.1500
 Temperature of fluid at right face (T right):           1503.1500
 Temperature of fluid at bottom face (T bottom):         1503.1500
 Temperature of fluid at top face (T top):               1523.1500
 ------------------------------------------------------------------------------------
 Heat transfer coefficient at left face (H left):          50.0000
 Heat transfer coefficient at right face (H right):        50.0000
 Heat transfer coefficient at bottom face (H bottom):       8.0000
 Heat transfer coefficient at top face (H top):           150.0000
 ====================================================================================


 SOLUTION of LINEAR SYSTEM: TDMA (tri-diagonal matrix algorithm)
      ADI approach employed in solution.
 Tolerance:       0.0010

 ====================================================================================
                    Calculation Results
 Current time:    6780.0000000000000       seconds
 Maximum Temperature :    1510.9770987964630
 Minimum Temperature :    1483.6288988415313
 Average(algebraic, non-weigthed) Temperature :    1494.9099520378750
 ====================================================================================
            I           J        X(m)        Y(m)        T(K)  Cp(J/kg.K) K(W/sq-m.K)
 ====================================================================================
            1           1      0.0000      0.0000   1500.9135    703.0000     54.8741
            1           2      0.0000      0.0067   1500.7492    703.0000     54.8632
            1           3      0.0000      0.0133   1500.6046    703.0000     54.8536
            1           4      0.0000      0.0200   1500.4810    703.0000     54.8454
            1           5      0.0000      0.0267   1500.3798    703.0000     54.8386
            1           6      0.0000      0.0333   1500.3022    703.0000     54.8335
            1           7      0.0000      0.0400   1500.2496    703.0000     54.8300
            1           8      0.0000      0.0467   1500.2230    703.0000     54.8282
            1           9      0.0000      0.0533   1500.2236    703.0000     54.8282
            1          10      0.0000      0.0600   1500.2526    703.0000     54.8302
            1          11      0.0000      0.0667   1500.3109    703.0000     54.8340
            1          12      0.0000      0.0733   1500.3998    703.0000     54.8400
            1          13      0.0000      0.0800   1500.5201    703.0000     54.8480
            1          14      0.0000      0.0867   1500.6728    703.0000     54.8581
            1          15      0.0000      0.0933   1500.8591    703.0000     54.8705
            1          16      0.0000      0.1000   1501.0799    703.0000     54.8852
            1          17      0.0000      0.1067   1501.3362    703.0000     54.9023
            1          18      0.0000      0.1133   1501.6294    703.0000     54.9218
            1          19      0.0000      0.1200   1501.9607    703.0000     54.9439
            1          20      0.0000      0.1267   1502.3316    703.0000     54.9686
            1          21      0.0000      0.1333   1502.7439    703.0000     54.9961
            1          22      0.0000      0.1400   1503.1998    703.0000     55.0266
            1          23      0.0000      0.1467   1503.7020    703.0000     55.0601
            1          24      0.0000      0.1533   1504.2539    703.0000     55.0971
            1          25      0.0000      0.1600   1504.8601    703.0000     55.1376
            1          26      0.0000      0.1667   1505.5264    703.0000     55.1823
            1          27      0.0000      0.1733   1506.2607    703.0000     55.2315
            1          28      0.0000      0.1800   1507.0735    703.0000     55.2861
            1          29      0.0000      0.1867   1507.9793    703.0000     55.3470
            1          30      0.0000      0.1933   1508.9976    703.0000     55.4156
            1          31      0.0000      0.2000   1510.1556    703.0000     55.4937
            2           1      0.0333      0.0000   1499.9674    703.0000     54.8112
            2           2      0.0333      0.0067   1499.7334    703.0000     54.7957
            2           3      0.0333      0.0133   1499.5267    703.0000     54.7819
            2           4      0.0333      0.0200   1499.3494    703.0000     54.7702
            2           5      0.0333      0.0267   1499.2032    703.0000     54.7605
            2           6      0.0333      0.0333   1499.0901    703.0000     54.7529
            2           7      0.0333      0.0400   1499.0116    703.0000     54.7477
            2           8      0.0333      0.0467   1498.9693    703.0000     54.7449
            2           9      0.0333      0.0533   1498.9649    703.0000     54.7446
            2          10      0.0333      0.0600   1498.9999    703.0000     54.7470
            2          11      0.0333      0.0667   1499.0755    703.0000     54.7520
            2          12      0.0333      0.0733   1499.1931    703.0000     54.7598
            2          13      0.0333      0.0800   1499.3541    703.0000     54.7705
            2          14      0.0333      0.0867   1499.5595    703.0000     54.7841
            2          15      0.0333      0.0933   1499.8107    703.0000     54.8008
            2          16      0.0333      0.1000   1500.1085    703.0000     54.8206
            2          17      0.0333      0.1067   1500.4542    703.0000     54.8436
            2          18      0.0333      0.1133   1500.8489    703.0000     54.8698
            2          19      0.0333      0.1200   1501.2935    703.0000     54.8994
            2          20      0.0333      0.1267   1501.7892    703.0000     54.9325
            2          21      0.0333      0.1333   1502.3372    703.0000     54.9690
            2          22      0.0333      0.1400   1502.9386    703.0000     55.0091
            2          23      0.0333      0.1467   1503.5948    703.0000     55.0530
            2          24      0.0333      0.1533   1504.3071    703.0000     55.1006
            2          25      0.0333      0.1600   1505.0770    703.0000     55.1522
            2          26      0.0333      0.1667   1505.9059    703.0000     55.2077
            2          27      0.0333      0.1733   1506.7954    703.0000     55.2674
            2          28      0.0333      0.1800   1507.7468    703.0000     55.3314
            2          29      0.0333      0.1867   1508.7611    703.0000     55.3997
            2          30      0.0333      0.1933   1509.8383    703.0000     55.4723
            2          31      0.0333      0.2000   1510.9771    703.0000     55.5492
            3           1      0.0667      0.0000   1498.9668    703.0000     54.7448
            3           2      0.0667      0.0067   1498.6582    703.0000     54.7243
            3           3      0.0667      0.0133   1498.3840    703.0000     54.7061
            3           4      0.0667      0.0200   1498.1465    703.0000     54.6904
            3           5      0.0667      0.0267   1497.9479    703.0000     54.6772
            3           6      0.0667      0.0333   1497.7905    703.0000     54.6668
            3           7      0.0667      0.0400   1497.6764    703.0000     54.6592
            3           8      0.0667      0.0467   1497.6074    703.0000     54.6546
            3           9      0.0667      0.0533   1497.5853    703.0000     54.6532
            3          10      0.0667      0.0600   1497.6119    703.0000     54.6549
            3          11      0.0667      0.0667   1497.6886    703.0000     54.6600
            3          12      0.0667      0.0733   1497.8169    703.0000     54.6685
            3          13      0.0667      0.0800   1497.9981    703.0000     54.6805
            3          14      0.0667      0.0867   1498.2332    703.0000     54.6961
            3          15      0.0667      0.0933   1498.5233    703.0000     54.7153
            3          16      0.0667      0.1000   1498.8691    703.0000     54.7383
            3          17      0.0667      0.1067   1499.2714    703.0000     54.7650
            3          18      0.0667      0.1133   1499.7307    703.0000     54.7955
            3          19      0.0667      0.1200   1500.2473    703.0000     54.8298
            3          20      0.0667      0.1267   1500.8216    703.0000     54.8680
            3          21      0.0667      0.1333   1501.4536    703.0000     54.9101
            3          22      0.0667      0.1400   1502.1432    703.0000     54.9561
            3          23      0.0667      0.1467   1502.8901    703.0000     55.0059
            3          24      0.0667      0.1533   1503.6940    703.0000     55.0596
            3          25      0.0667      0.1600   1504.5540    703.0000     55.1171
            3          26      0.0667      0.1667   1505.4692    703.0000     55.1784
            3          27      0.0667      0.1733   1506.4383    703.0000     55.2434
            3          28      0.0667      0.1800   1507.4597    703.0000     55.3121
            3          29      0.0667      0.1867   1508.5312    703.0000     55.3842
            3          30      0.0667      0.1933   1509.6502    703.0000     55.4596
            3          31      0.0667      0.2000   1510.8136    703.0000     55.5381
            4           1      0.1000      0.0000   1497.9188    703.0000     54.6753
            4           2      0.1000      0.0067   1497.5317    703.0000     54.6496
            4           3      0.1000      0.0133   1497.1851    703.0000     54.6267
            4           4      0.1000      0.0200   1496.8817    703.0000     54.6066
            4           5      0.1000      0.0267   1496.6242    703.0000     54.5896
            4           6      0.1000      0.0333   1496.4151    703.0000     54.5758
            4           7      0.1000      0.0400   1496.2568    703.0000     54.5653
            4           8      0.1000      0.0467   1496.1514    703.0000     54.5584
            4           9      0.1000      0.0533   1496.1010    703.0000     54.5550
            4          10      0.1000      0.0600   1496.1074    703.0000     54.5554
            4          11      0.1000      0.0667   1496.1722    703.0000     54.5597
            4          12      0.1000      0.0733   1496.2967    703.0000     54.5680
            4          13      0.1000      0.0800   1496.4823    703.0000     54.5802
            4          14      0.1000      0.0867   1496.7299    703.0000     54.5966
            4          15      0.1000      0.0933   1497.0403    703.0000     54.6171
            4          16      0.1000      0.1000   1497.4140    703.0000     54.6418
            4          17      0.1000      0.1067   1497.8513    703.0000     54.6708
            4          18      0.1000      0.1133   1498.3524    703.0000     54.7040
            4          19      0.1000      0.1200   1498.9170    703.0000     54.7415
            4          20      0.1000      0.1267   1499.5448    703.0000     54.7831
            4          21      0.1000      0.1333   1500.2352    703.0000     54.8290
            4          22      0.1000      0.1400   1500.9871    703.0000     54.8790
            4          23      0.1000      0.1467   1501.7994    703.0000     54.9331
            4          24      0.1000      0.1533   1502.6708    703.0000     54.9913
            4          25      0.1000      0.1600   1503.5995    703.0000     55.0533
            4          26      0.1000      0.1667   1504.5835    703.0000     55.1191
            4          27      0.1000      0.1733   1505.6204    703.0000     55.1886
            4          28      0.1000      0.1800   1506.7078    703.0000     55.2615
            4          29      0.1000      0.1867   1507.8428    703.0000     55.3378
            4          30      0.1000      0.1933   1509.0221    703.0000     55.4172
            4          31      0.1000      0.2000   1510.2422    703.0000     55.4995
            5           1      0.1333      0.0000   1496.8442    703.0000     54.6041
            5           2      0.1333      0.0067   1496.3762    703.0000     54.5732
            5           3      0.1333      0.0133   1495.9541    703.0000     54.5453
            5           4      0.1333      0.0200   1495.5812    703.0000     54.5207
            5           5      0.1333      0.0267   1495.2604    703.0000     54.4995
            5           6      0.1333      0.0333   1494.9947    703.0000     54.4820
            5           7      0.1333      0.0400   1494.7866    703.0000     54.4683
            5           8      0.1333      0.0467   1494.6385    703.0000     54.4585
            5           9      0.1333      0.0533   1494.5526    703.0000     54.4529
            5          10      0.1333      0.0600   1494.5308    703.0000     54.4514
            5          11      0.1333      0.0667   1494.5750    703.0000     54.4543
            5          12      0.1333      0.0733   1494.6864    703.0000     54.4617
            5          13      0.1333      0.0800   1494.8664    703.0000     54.4736
            5          14      0.1333      0.0867   1495.1158    703.0000     54.4900
            5          15      0.1333      0.0933   1495.4352    703.0000     54.5111
            5          16      0.1333      0.1000   1495.8251    703.0000     54.5368
            5          17      0.1333      0.1067   1496.2855    703.0000     54.5672
            5          18      0.1333      0.1133   1496.8161    703.0000     54.6023
            5          19      0.1333      0.1200   1497.4164    703.0000     54.6420
            5          20      0.1333      0.1267   1498.0857    703.0000     54.6863
            5          21      0.1333      0.1333   1498.8229    703.0000     54.7352
            5          22      0.1333      0.1400   1499.6265    703.0000     54.7886
            5          23      0.1333      0.1467   1500.4949    703.0000     54.8463
            5          24      0.1333      0.1533   1501.4261    703.0000     54.9083
            5          25      0.1333      0.1600   1502.4179    703.0000     54.9744
            5          26      0.1333      0.1667   1503.4677    703.0000     55.0445
            5          27      0.1333      0.1733   1504.5727    703.0000     55.1184
            5          28      0.1333      0.1800   1505.7300    703.0000     55.1959
            5          29      0.1333      0.1867   1506.9362    703.0000     55.2769
            5          30      0.1333      0.1933   1508.1878    703.0000     55.3610
            5          31      0.1333      0.2000   1509.4810    703.0000     55.4482
            6           1      0.1667      0.0000   1495.7706    703.0000     54.5332
            6           2      0.1667      0.0067   1495.2215    703.0000     54.4970
            6           3      0.1667      0.0133   1494.7234    703.0000     54.4641
            6           4      0.1667      0.0200   1494.2798    703.0000     54.4349
            6           5      0.1667      0.0267   1493.8942    703.0000     54.4095
            6           6      0.1667      0.0333   1493.5696    703.0000     54.3881
            6           7      0.1667      0.0400   1493.3090    703.0000     54.3710
            6           8      0.1667      0.0467   1493.1149    703.0000     54.3582
            6           9      0.1667      0.0533   1492.9898    703.0000     54.3500
            6          10      0.1667      0.0600   1492.9358    703.0000     54.3465
            6          11      0.1667      0.0667   1492.9546    703.0000     54.3477
            6          12      0.1667      0.0733   1493.0478    703.0000     54.3538
            6          13      0.1667      0.0800   1493.2166    703.0000     54.3649
            6          14      0.1667      0.0867   1493.4619    703.0000     54.3811
            6          15      0.1667      0.0933   1493.7843    703.0000     54.4023
            6          16      0.1667      0.1000   1494.1839    703.0000     54.4286
            6          17      0.1667      0.1067   1494.6608    703.0000     54.4600
            6          18      0.1667      0.1133   1495.2146    703.0000     54.4965
            6          19      0.1667      0.1200   1495.8444    703.0000     54.5381
            6          20      0.1667      0.1267   1496.5492    703.0000     54.5846
            6          21      0.1667      0.1333   1497.3277    703.0000     54.6361
            6          22      0.1667      0.1400   1498.1780    703.0000     54.6925
            6          23      0.1667      0.1467   1499.0983    703.0000     54.7535
            6          24      0.1667      0.1533   1500.0861    703.0000     54.8191
            6          25      0.1667      0.1600   1501.1390    703.0000     54.8891
            6          26      0.1667      0.1667   1502.2539    703.0000     54.9634
            6          27      0.1667      0.1733   1503.4277    703.0000     55.0418
            6          28      0.1667      0.1800   1504.6570    703.0000     55.1240
            6          29      0.1667      0.1867   1505.9383    703.0000     55.2099
            6          30      0.1667      0.1933   1507.2676    703.0000     55.2992
            6          31      0.1667      0.2000   1508.6409    703.0000     55.3916
            7           1      0.2000      0.0000   1494.7274    703.0000     54.4644
            7           2      0.2000      0.0067   1494.0992    703.0000     54.4230
            7           3      0.2000      0.0133   1493.5268    703.0000     54.3853
            7           4      0.2000      0.0200   1493.0139    703.0000     54.3516
            7           5      0.2000      0.0267   1492.5643    703.0000     54.3221
            7           6      0.2000      0.0333   1492.1813    703.0000     54.2969
            7           7      0.2000      0.0400   1491.8681    703.0000     54.2764
            7           8      0.2000      0.0467   1491.6276    703.0000     54.2606
            7           9      0.2000      0.0533   1491.4623    703.0000     54.2497
            7          10      0.2000      0.0600   1491.3745    703.0000     54.2440
            7          11      0.2000      0.0667   1491.3662    703.0000     54.2434
            7          12      0.2000      0.0733   1491.4390    703.0000     54.2482
            7          13      0.2000      0.0800   1491.5941    703.0000     54.2584
            7          14      0.2000      0.0867   1491.8324    703.0000     54.2740
            7          15      0.2000      0.0933   1492.1545    703.0000     54.2952
            7          16      0.2000      0.1000   1492.5607    703.0000     54.3218
            7          17      0.2000      0.1067   1493.0506    703.0000     54.3540
            7          18      0.2000      0.1133   1493.6238    703.0000     54.3917
            7          19      0.2000      0.1200   1494.2794    703.0000     54.4349
            7          20      0.2000      0.1267   1495.0162    703.0000     54.4834
            7          21      0.2000      0.1333   1495.8325    703.0000     54.5373
            7          22      0.2000      0.1400   1496.7263    703.0000     54.5964
            7          23      0.2000      0.1467   1497.6955    703.0000     54.6605
            7          24      0.2000      0.1533   1498.7373    703.0000     54.7295
            7          25      0.2000      0.1600   1499.8490    703.0000     54.8033
            7          26      0.2000      0.1667   1501.0272    703.0000     54.8817
            7          27      0.2000      0.1733   1502.2686    703.0000     54.9644
            7          28      0.2000      0.1800   1503.5694    703.0000     55.0513
            7          29      0.2000      0.1867   1504.9256    703.0000     55.1420
            7          30      0.2000      0.1933   1506.3331    703.0000     55.2364
            7          31      0.2000      0.2000   1507.7876    703.0000     55.3341
            8           1      0.2333      0.0000   1493.7415    703.0000     54.3995
            8           2      0.2333      0.0067   1493.0386    703.0000     54.3532
            8           3      0.2333      0.0133   1492.3956    703.0000     54.3110
            8           4      0.2333      0.0200   1491.8168    703.0000     54.2730
            8           5      0.2333      0.0267   1491.3061    703.0000     54.2395
            8           6      0.2333      0.0333   1490.8673    703.0000     54.2108
            8           7      0.2333      0.0400   1490.5036    703.0000     54.1869
            8           8      0.2333      0.0467   1490.2182    703.0000     54.1683
            8           9      0.2333      0.0533   1490.0139    703.0000     54.1549
            8          10      0.2333      0.0600   1489.8931    703.0000     54.1470
            8          11      0.2333      0.0667   1489.8578    703.0000     54.1447
            8          12      0.2333      0.0733   1489.9099    703.0000     54.1481
            8          13      0.2333      0.0800   1490.0506    703.0000     54.1573
            8          14      0.2333      0.0867   1490.2808    703.0000     54.1724
            8          15      0.2333      0.0933   1490.6012    703.0000     54.1933
            8          16      0.2333      0.1000   1491.0120    703.0000     54.2202
            8          17      0.2333      0.1067   1491.5128    703.0000     54.2531
            8          18      0.2333      0.1133   1492.1031    703.0000     54.2918
            8          19      0.2333      0.1200   1492.7818    703.0000     54.3364
            8          20      0.2333      0.1267   1493.5476    703.0000     54.3867
            8          21      0.2333      0.1333   1494.3987    703.0000     54.4427
            8          22      0.2333      0.1400   1495.3328    703.0000     54.5043
            8          23      0.2333      0.1467   1496.3476    703.0000     54.5713
            8          24      0.2333      0.1533   1497.4402    703.0000     54.6436
            8          25      0.2333      0.1600   1498.6074    703.0000     54.7209
            8          26      0.2333      0.1667   1499.8457    703.0000     54.8031
            8          27      0.2333      0.1733   1501.1514    703.0000     54.8900
            8          28      0.2333      0.1800   1502.5205    703.0000     54.9812
            8          29      0.2333      0.1867   1503.9486    703.0000     55.0766
            8          30      0.2333      0.1933   1505.4314    703.0000     55.1759
            8          31      0.2333      0.2000   1506.9642    703.0000     55.2788
            9           1      0.2667      0.0000   1492.8356    703.0000     54.3399
            9           2      0.2667      0.0067   1492.0640    703.0000     54.2892
            9           3      0.2667      0.0133   1491.3561    703.0000     54.2428
            9           4      0.2667      0.0200   1490.7165    703.0000     54.2009
            9           5      0.2667      0.0267   1490.1495    703.0000     54.1638
            9           6      0.2667      0.0333   1489.6589    703.0000     54.1317
            9           7      0.2667      0.0400   1489.2484    703.0000     54.1049
            9           8      0.2667      0.0467   1488.9213    703.0000     54.0835
            9           9      0.2667      0.0533   1488.6805    703.0000     54.0678
            9          10      0.2667      0.0600   1488.5287    703.0000     54.0579
            9          11      0.2667      0.0667   1488.4680    703.0000     54.0539
            9          12      0.2667      0.0733   1488.5004    703.0000     54.0560
            9          13      0.2667      0.0800   1488.6271    703.0000     54.0643
            9          14      0.2667      0.0867   1488.8493    703.0000     54.0788
            9          15      0.2667      0.0933   1489.1674    703.0000     54.0996
            9          16      0.2667      0.1000   1489.5817    703.0000     54.1266
            9          17      0.2667      0.1067   1490.0918    703.0000     54.1600
            9          18      0.2667      0.1133   1490.6972    703.0000     54.1996
            9          19      0.2667      0.1200   1491.3966    703.0000     54.2454
            9          20      0.2667      0.1267   1492.1886    703.0000     54.2974
            9          21      0.2667      0.1333   1493.0712    703.0000     54.3554
            9          22      0.2667      0.1400   1494.0421    703.0000     54.4192
            9          23      0.2667      0.1467   1495.0986    703.0000     54.4889
            9          24      0.2667      0.1533   1496.2377    703.0000     54.5641
            9          25      0.2667      0.1600   1497.4560    703.0000     54.6446
            9          26      0.2667      0.1667   1498.7497    703.0000     54.7304
            9          27      0.2667      0.1733   1500.1148    703.0000     54.8210
            9          28      0.2667      0.1800   1501.5470    703.0000     54.9163
            9          29      0.2667      0.1867   1503.0418    703.0000     55.0160
            9          30      0.2667      0.1933   1504.5944    703.0000     55.1198
            9          31      0.2667      0.2000   1506.1998    703.0000     55.2274
           10           1      0.3000      0.0000   1492.0276    703.0000     54.2868
           10           2      0.3000      0.0067   1491.1946    703.0000     54.2322
           10           3      0.3000      0.0133   1490.4288    703.0000     54.1820
           10           4      0.3000      0.0200   1489.7349    703.0000     54.1366
           10           5      0.3000      0.0267   1489.1174    703.0000     54.0963
           10           6      0.3000      0.0333   1488.5804    703.0000     54.0612
           10           7      0.3000      0.0400   1488.1279    703.0000     54.0317
           10           8      0.3000      0.0467   1487.7633    703.0000     54.0080
           10           9      0.3000      0.0533   1487.4898    703.0000     53.9901
           10          10      0.3000      0.0600   1487.3100    703.0000     53.9784
           10          11      0.3000      0.0667   1487.2264    703.0000     53.9730
           10          12      0.3000      0.0733   1487.2408    703.0000     53.9739
           10          13      0.3000      0.0800   1487.3547    703.0000     53.9813
           10          14      0.3000      0.0867   1487.5693    703.0000     53.9953
           10          15      0.3000      0.0933   1487.8850    703.0000     54.0159
           10          16      0.3000      0.1000   1488.3022    703.0000     54.0431
           10          17      0.3000      0.1067   1488.8204    703.0000     54.0769
           10          18      0.3000      0.1133   1489.4389    703.0000     54.1173
           10          19      0.3000      0.1200   1490.1565    703.0000     54.1642
           10          20      0.3000      0.1267   1490.9716    703.0000     54.2176
           10          21      0.3000      0.1333   1491.8822    703.0000     54.2773
           10          22      0.3000      0.1400   1492.8858    703.0000     54.3432
           10          23      0.3000      0.1467   1493.9795    703.0000     54.4151
           10          24      0.3000      0.1533   1495.1601    703.0000     54.4929
           10          25      0.3000      0.1600   1496.4240    703.0000     54.5764
           10          26      0.3000      0.1667   1497.7672    703.0000     54.6652
           10          27      0.3000      0.1733   1499.1854    703.0000     54.7593
           10          28      0.3000      0.1800   1500.6742    703.0000     54.8582
           10          29      0.3000      0.1867   1502.2287    703.0000     54.9618
           10          30      0.3000      0.1933   1503.8439    703.0000     55.0696
           10          31      0.3000      0.2000   1505.5145    703.0000     55.1815
           11           1      0.3333      0.0000   1491.3305    703.0000     54.2411
           11           2      0.3333      0.0067   1490.4445    703.0000     54.1831
           11           3      0.3333      0.0133   1489.6286    703.0000     54.1297
           11           4      0.3333      0.0200   1488.8877    703.0000     54.0813
           11           5      0.3333      0.0267   1488.2266    703.0000     54.0382
           11           6      0.3333      0.0333   1487.6496    703.0000     54.0005
           11           7      0.3333      0.0400   1487.1607    703.0000     53.9687
           11           8      0.3333      0.0467   1486.7636    703.0000     53.9429
           11           9      0.3333      0.0533   1486.4616    703.0000     53.9232
           11          10      0.3333      0.0600   1486.2575    703.0000     53.9099
           11          11      0.3333      0.0667   1486.1539    703.0000     53.9032
           11          12      0.3333      0.0733   1486.1527    703.0000     53.9031
           11          13      0.3333      0.0800   1486.2555    703.0000     53.9098
           11          14      0.3333      0.0867   1486.4633    703.0000     53.9233
           11          15      0.3333      0.0933   1486.7769    703.0000     53.9437
           11          16      0.3333      0.1000   1487.1963    703.0000     53.9710
           11          17      0.3333      0.1067   1487.7213    703.0000     54.0052
           11          18      0.3333      0.1133   1488.3510    703.0000     54.0463
           11          19      0.3333      0.1200   1489.0843    703.0000     54.0941
           11          20      0.3333      0.1267   1489.9193    703.0000     54.1487
           11          21      0.3333      0.1333   1490.8540    703.0000     54.2099
           11          22      0.3333      0.1400   1491.8858    703.0000     54.2775
           11          23      0.3333      0.1467   1493.0115    703.0000     54.3514
           11          24      0.3333      0.1533   1494.2280    703.0000     54.4315
           11          25      0.3333      0.1600   1495.5312    703.0000     54.5174
           11          26      0.3333      0.1667   1496.9172    703.0000     54.6090
           11          27      0.3333      0.1733   1498.3814    703.0000     54.7059
           11          28      0.3333      0.1800   1499.9191    703.0000     54.8080
           11          29      0.3333      0.1867   1501.5253    703.0000     54.9149
           11          30      0.3333      0.1933   1503.1946    703.0000     55.0262
           11          31      0.3333      0.2000   1504.9217    703.0000     55.1418
           12           1      0.3667      0.0000   1490.7529    703.0000     54.2033
           12           2      0.3667      0.0067   1489.8230    703.0000     54.1424
           12           3      0.3667      0.0133   1488.9656    703.0000     54.0864
           12           4      0.3667      0.0200   1488.1858    703.0000     54.0355
           12           5      0.3667      0.0267   1487.4885    703.0000     53.9900
           12           6      0.3667      0.0333   1486.8782    703.0000     53.9503
           12           7      0.3667      0.0400   1486.3591    703.0000     53.9165
           12           8      0.3667      0.0467   1485.9350    703.0000     53.8890
           12           9      0.3667      0.0533   1485.6093    703.0000     53.8678
           12          10      0.3667      0.0600   1485.3851    703.0000     53.8533
           12          11      0.3667      0.0667   1485.2648    703.0000     53.8455
           12          12      0.3667      0.0733   1485.2506    703.0000     53.8445
           12          13      0.3667      0.0800   1485.3440    703.0000     53.8506
           12          14      0.3667      0.0867   1485.5462    703.0000     53.8637
           12          15      0.3667      0.0933   1485.8579    703.0000     53.8840
           12          16      0.3667      0.1000   1486.2791    703.0000     53.9113
           12          17      0.3667      0.1067   1486.8097    703.0000     53.9459
           12          18      0.3667      0.1133   1487.4487    703.0000     53.9875
           12          19      0.3667      0.1200   1488.1949    703.0000     54.0361
           12          20      0.3667      0.1267   1489.0464    703.0000     54.0917
           12          21      0.3667      0.1333   1490.0010    703.0000     54.1541
           12          22      0.3667      0.1400   1491.0561    703.0000     54.2231
           12          23      0.3667      0.1467   1492.2085    703.0000     54.2987
           12          24      0.3667      0.1533   1493.4546    703.0000     54.3806
           12          25      0.3667      0.1600   1494.7905    703.0000     54.4685
           12          26      0.3667      0.1667   1496.2120    703.0000     54.5624
           12          27      0.3667      0.1733   1497.7143    703.0000     54.6617
           12          28      0.3667      0.1800   1499.2926    703.0000     54.7664
           12          29      0.3667      0.1867   1500.9417    703.0000     54.8760
           12          30      0.3667      0.1933   1502.6560    703.0000     54.9903
           12          31      0.3667      0.2000   1504.4298    703.0000     55.1088
           13           1      0.4000      0.0000   1490.3003    703.0000     54.1736
           13           2      0.4000      0.0067   1489.3360    703.0000     54.1106
           13           3      0.4000      0.0133   1488.4460    703.0000     54.0525
           13           4      0.4000      0.0200   1487.6357    703.0000     53.9996
           13           5      0.4000      0.0267   1486.9100    703.0000     53.9524
           13           6      0.4000      0.0333   1486.2736    703.0000     53.9110
           13           7      0.4000      0.0400   1485.7308    703.0000     53.8757
           13           8      0.4000      0.0467   1485.2855    703.0000     53.8468
           13           9      0.4000      0.0533   1484.9413    703.0000     53.8245
           13          10      0.4000      0.0600   1484.7012    703.0000     53.8089
           13          11      0.4000      0.0667   1484.5678    703.0000     53.8003
           13          12      0.4000      0.0733   1484.5433    703.0000     53.7987
           13          13      0.4000      0.0800   1484.6294    703.0000     53.8042
           13          14      0.4000      0.0867   1484.8271    703.0000     53.8171
           13          15      0.4000      0.0933   1485.1373    703.0000     53.8372
           13          16      0.4000      0.1000   1485.5600    703.0000     53.8646
           13          17      0.4000      0.1067   1486.0949    703.0000     53.8994
           13          18      0.4000      0.1133   1486.7411    703.0000     53.9414
           13          19      0.4000      0.1200   1487.4974    703.0000     53.9906
           13          20      0.4000      0.1267   1488.3618    703.0000     54.0470
           13          21      0.4000      0.1333   1489.3321    703.0000     54.1103
           13          22      0.4000      0.1400   1490.4055    703.0000     54.1805
           13          23      0.4000      0.1467   1491.5787    703.0000     54.2574
           13          24      0.4000      0.1533   1492.8481    703.0000     54.3407
           13          25      0.4000      0.1600   1494.2096    703.0000     54.4303
           13          26      0.4000      0.1667   1495.6589    703.0000     54.5258
           13          27      0.4000      0.1733   1497.1912    703.0000     54.6271
           13          28      0.4000      0.1800   1498.8013    703.0000     54.7338
           13          29      0.4000      0.1867   1500.4840    703.0000     54.8456
           13          30      0.4000      0.1933   1502.2336    703.0000     54.9621
           13          31      0.4000      0.2000   1504.0442    703.0000     55.0830
           14           1      0.4333      0.0000   1489.9757    703.0000     54.1524
           14           2      0.4333      0.0067   1488.9867    703.0000     54.0878
           14           3      0.4333      0.0133   1488.0734    703.0000     54.0282
           14           4      0.4333      0.0200   1487.2411    703.0000     53.9739
           14           5      0.4333      0.0267   1486.4950    703.0000     53.9254
           14           6      0.4333      0.0333   1485.8399    703.0000     53.8828
           14           7      0.4333      0.0400   1485.2801    703.0000     53.8465
           14           8      0.4333      0.0467   1484.8196    703.0000     53.8166
           14           9      0.4333      0.0533   1484.4621    703.0000     53.7934
           14          10      0.4333      0.0600   1484.2106    703.0000     53.7771
           14          11      0.4333      0.0667   1484.0678    703.0000     53.7679
           14          12      0.4333      0.0733   1484.0359    703.0000     53.7658
           14          13      0.4333      0.0800   1484.1167    703.0000     53.7710
           14          14      0.4333      0.0867   1484.3112    703.0000     53.7836
           14          15      0.4333      0.0933   1484.6203    703.0000     53.8037
           14          16      0.4333      0.1000   1485.0440    703.0000     53.8311
           14          17      0.4333      0.1067   1485.5820    703.0000     53.8661
           14          18      0.4333      0.1133   1486.2334    703.0000     53.9084
           14          19      0.4333      0.1200   1486.9970    703.0000     53.9580
           14          20      0.4333      0.1267   1487.8706    703.0000     54.0149
           14          21      0.4333      0.1333   1488.8521    703.0000     54.0790
           14          22      0.4333      0.1400   1489.9386    703.0000     54.1500
           14          23      0.4333      0.1467   1491.1268    703.0000     54.2278
           14          24      0.4333      0.1533   1492.4129    703.0000     54.3121
           14          25      0.4333      0.1600   1493.7928    703.0000     54.4028
           14          26      0.4333      0.1667   1495.2621    703.0000     54.4996
           14          27      0.4333      0.1733   1496.8158    703.0000     54.6023
           14          28      0.4333      0.1800   1498.4488    703.0000     54.7104
           14          29      0.4333      0.1867   1500.1556    703.0000     54.8237
           14          30      0.4333      0.1933   1501.9305    703.0000     54.9419
           14          31      0.4333      0.2000   1503.7675    703.0000     55.0645
           15           1      0.4667      0.0000   1489.7805    703.0000     54.1396
           15           2      0.4667      0.0067   1488.7767    703.0000     54.0740
           15           3      0.4667      0.0133   1487.8493    703.0000     54.0136
           15           4      0.4667      0.0200   1487.0038    703.0000     53.9585
           15           5      0.4667      0.0267   1486.2455    703.0000     53.9092
           15           6      0.4667      0.0333   1485.5791    703.0000     53.8659
           15           7      0.4667      0.0400   1485.0091    703.0000     53.8289
           15           8      0.4667      0.0467   1484.5395    703.0000     53.7984
           15           9      0.4667      0.0533   1484.1739    703.0000     53.7747
           15          10      0.4667      0.0600   1483.9155    703.0000     53.7580
           15          11      0.4667      0.0667   1483.7671    703.0000     53.7484
           15          12      0.4667      0.0733   1483.7308    703.0000     53.7460
           15          13      0.4667      0.0800   1483.8083    703.0000     53.7511
           15          14      0.4667      0.0867   1484.0010    703.0000     53.7635
           15          15      0.4667      0.0933   1484.3094    703.0000     53.7835
           15          16      0.4667      0.1000   1484.7337    703.0000     53.8110
           15          17      0.4667      0.1067   1485.2735    703.0000     53.8460
           15          18      0.4667      0.1133   1485.9281    703.0000     53.8885
           15          19      0.4667      0.1200   1486.6960    703.0000     53.9385
           15          20      0.4667      0.1267   1487.5752    703.0000     53.9957
           15          21      0.4667      0.1333   1488.5635    703.0000     54.0601
           15          22      0.4667      0.1400   1489.6578    703.0000     54.1316
           15          23      0.4667      0.1467   1490.8550    703.0000     54.2099
           15          24      0.4667      0.1533   1492.1512    703.0000     54.2949
           15          25      0.4667      0.1600   1493.5422    703.0000     54.3863
           15          26      0.4667      0.1667   1495.0235    703.0000     54.4839
           15          27      0.4667      0.1733   1496.5901    703.0000     54.5873
           15          28      0.4667      0.1800   1498.2369    703.0000     54.6963
           15          29      0.4667      0.1867   1499.9582    703.0000     54.8106
           15          30      0.4667      0.1933   1501.7483    703.0000     54.9297
           15          31      0.4667      0.2000   1503.6011    703.0000     55.0534
           16           1      0.5000      0.0000   1489.7153    703.0000     54.1354
           16           2      0.5000      0.0067   1488.7065    703.0000     54.0695
           16           3      0.5000      0.0133   1487.7745    703.0000     54.0087
           16           4      0.5000      0.0200   1486.9246    703.0000     53.9533
           16           5      0.5000      0.0267   1486.1622    703.0000     53.9037
           16           6      0.5000      0.0333   1485.4920    703.0000     53.8602
           16           7      0.5000      0.0400   1484.9186    703.0000     53.8230
           16           8      0.5000      0.0467   1484.4459    703.0000     53.7924
           16           9      0.5000      0.0533   1484.0777    703.0000     53.7685
           16          10      0.5000      0.0600   1483.8170    703.0000     53.7516
           16          11      0.5000      0.0667   1483.6667    703.0000     53.7419
           16          12      0.5000      0.0733   1483.6289    703.0000     53.7394
           16          13      0.5000      0.0800   1483.7054    703.0000     53.7444
           16          14      0.5000      0.0867   1483.8974    703.0000     53.7568
           16          15      0.5000      0.0933   1484.2055    703.0000     53.7768
           16          16      0.5000      0.1000   1484.6301    703.0000     53.8043
           16          17      0.5000      0.1067   1485.1706    703.0000     53.8393
           16          18      0.5000      0.1133   1485.8262    703.0000     53.8819
           16          19      0.5000      0.1200   1486.5955    703.0000     53.9319
           16          20      0.5000      0.1267   1487.4766    703.0000     53.9893
           16          21      0.5000      0.1333   1488.4671    703.0000     54.0538
           16          22      0.5000      0.1400   1489.5641    703.0000     54.1255
           16          23      0.5000      0.1467   1490.7642    703.0000     54.2040
           16          24      0.5000      0.1533   1492.0638    703.0000     54.2892
           16          25      0.5000      0.1600   1493.4585    703.0000     54.3808
           16          26      0.5000      0.1667   1494.9438    703.0000     54.4787
           16          27      0.5000      0.1733   1496.5147    703.0000     54.5824
           16          28      0.5000      0.1800   1498.1661    703.0000     54.6917
           16          29      0.5000      0.1867   1499.8922    703.0000     54.8062
           16          30      0.5000      0.1933   1501.6874    703.0000     54.9257
           16          31      0.5000      0.2000   1503.5455    703.0000     55.0497
           17           1      0.5333      0.0000   1489.7803    703.0000     54.1396
           17           2      0.5333      0.0067   1488.7765    703.0000     54.0740
           17           3      0.5333      0.0133   1487.8491    703.0000     54.0135
           17           4      0.5333      0.0200   1487.0036    703.0000     53.9585
           17           5      0.5333      0.0267   1486.2453    703.0000     53.9092
           17           6      0.5333      0.0333   1485.5789    703.0000     53.8659
           17           7      0.5333      0.0400   1485.0088    703.0000     53.8289
           17           8      0.5333      0.0467   1484.5392    703.0000     53.7984
           17           9      0.5333      0.0533   1484.1736    703.0000     53.7747
           17          10      0.5333      0.0600   1483.9153    703.0000     53.7580
           17          11      0.5333      0.0667   1483.7668    703.0000     53.7484
           17          12      0.5333      0.0733   1483.7305    703.0000     53.7460
           17          13      0.5333      0.0800   1483.8081    703.0000     53.7510
           17          14      0.5333      0.0867   1484.0007    703.0000     53.7635
           17          15      0.5333      0.0933   1484.3091    703.0000     53.7835
           17          16      0.5333      0.1000   1484.7334    703.0000     53.8110
           17          17      0.5333      0.1067   1485.2733    703.0000     53.8460
           17          18      0.5333      0.1133   1485.9279    703.0000     53.8885
           17          19      0.5333      0.1200   1486.6957    703.0000     53.9384
           17          20      0.5333      0.1267   1487.5750    703.0000     53.9957
           17          21      0.5333      0.1333   1488.5632    703.0000     54.0601
           17          22      0.5333      0.1400   1489.6576    703.0000     54.1316
           17          23      0.5333      0.1467   1490.8547    703.0000     54.2099
           17          24      0.5333      0.1533   1492.1509    703.0000     54.2949
           17          25      0.5333      0.1600   1493.5420    703.0000     54.3863
           17          26      0.5333      0.1667   1495.0233    703.0000     54.4839
           17          27      0.5333      0.1733   1496.5899    703.0000     54.5873
           17          28      0.5333      0.1800   1498.2367    703.0000     54.6963
           17          29      0.5333      0.1867   1499.9580    703.0000     54.8106
           17          30      0.5333      0.1933   1501.7481    703.0000     54.9297
           17          31      0.5333      0.2000   1503.6009    703.0000     55.0534
           18           1      0.5667      0.0000   1489.9753    703.0000     54.1524
           18           2      0.5667      0.0067   1488.9863    703.0000     54.0877
           18           3      0.5667      0.0133   1488.0730    703.0000     54.0281
           18           4      0.5667      0.0200   1487.2407    703.0000     53.9739
           18           5      0.5667      0.0267   1486.4946    703.0000     53.9254
           18           6      0.5667      0.0333   1485.8394    703.0000     53.8828
           18           7      0.5667      0.0400   1485.2796    703.0000     53.8464
           18           8      0.5667      0.0467   1484.8191    703.0000     53.8166
           18           9      0.5667      0.0533   1484.4616    703.0000     53.7934
           18          10      0.5667      0.0600   1484.2100    703.0000     53.7771
           18          11      0.5667      0.0667   1484.0673    703.0000     53.7678
           18          12      0.5667      0.0733   1484.0354    703.0000     53.7658
           18          13      0.5667      0.0800   1484.1161    703.0000     53.7710
           18          14      0.5667      0.0867   1484.3107    703.0000     53.7836
           18          15      0.5667      0.0933   1484.6197    703.0000     53.8036
           18          16      0.5667      0.1000   1485.0434    703.0000     53.8311
           18          17      0.5667      0.1067   1485.5815    703.0000     53.8660
           18          18      0.5667      0.1133   1486.2329    703.0000     53.9083
           18          19      0.5667      0.1200   1486.9964    703.0000     53.9580
           18          20      0.5667      0.1267   1487.8701    703.0000     54.0149
           18          21      0.5667      0.1333   1488.8516    703.0000     54.0789
           18          22      0.5667      0.1400   1489.9381    703.0000     54.1499
           18          23      0.5667      0.1467   1491.1263    703.0000     54.2277
           18          24      0.5667      0.1533   1492.4124    703.0000     54.3121
           18          25      0.5667      0.1600   1493.7924    703.0000     54.4028
           18          26      0.5667      0.1667   1495.2617    703.0000     54.4996
           18          27      0.5667      0.1733   1496.8154    703.0000     54.6022
           18          28      0.5667      0.1800   1498.4485    703.0000     54.7104
           18          29      0.5667      0.1867   1500.1553    703.0000     54.8237
           18          30      0.5667      0.1933   1501.9302    703.0000     54.9419
           18          31      0.5667      0.2000   1503.7672    703.0000     55.0645
           19           1      0.6000      0.0000   1490.2998    703.0000     54.1736
           19           2      0.6000      0.0067   1489.3354    703.0000     54.1105
           19           3      0.6000      0.0133   1488.4454    703.0000     54.0524
           19           4      0.6000      0.0200   1487.6350    703.0000     53.9996
           19           5      0.6000      0.0267   1486.9093    703.0000     53.9523
           19           6      0.6000      0.0333   1486.2728    703.0000     53.9109
           19           7      0.6000      0.0400   1485.7300    703.0000     53.8757
           19           8      0.6000      0.0467   1485.2847    703.0000     53.8468
           19           9      0.6000      0.0533   1484.9405    703.0000     53.8244
           19          10      0.6000      0.0600   1484.7004    703.0000     53.8089
           19          11      0.6000      0.0667   1484.5670    703.0000     53.8002
           19          12      0.6000      0.0733   1484.5425    703.0000     53.7986
           19          13      0.6000      0.0800   1484.6285    703.0000     53.8042
           19          14      0.6000      0.0867   1484.8263    703.0000     53.8170
           19          15      0.6000      0.0933   1485.1364    703.0000     53.8371
           19          16      0.6000      0.1000   1485.5591    703.0000     53.8646
           19          17      0.6000      0.1067   1486.0940    703.0000     53.8993
           19          18      0.6000      0.1133   1486.7403    703.0000     53.9413
           19          19      0.6000      0.1200   1487.4966    703.0000     53.9906
           19          20      0.6000      0.1267   1488.3610    703.0000     54.0469
           19          21      0.6000      0.1333   1489.3313    703.0000     54.1103
           19          22      0.6000      0.1400   1490.4047    703.0000     54.1805
           19          23      0.6000      0.1467   1491.5779    703.0000     54.2573
           19          24      0.6000      0.1533   1492.8474    703.0000     54.3407
           19          25      0.6000      0.1600   1494.2089    703.0000     54.4302
           19          26      0.6000      0.1667   1495.6583    703.0000     54.5258
           19          27      0.6000      0.1733   1497.1906    703.0000     54.6271
           19          28      0.6000      0.1800   1498.8008    703.0000     54.7337
           19          29      0.6000      0.1867   1500.4835    703.0000     54.8455
           19          30      0.6000      0.1933   1502.2331    703.0000     54.9621
           19          31      0.6000      0.2000   1504.0437    703.0000     55.0830
           20           1      0.6333      0.0000   1490.7521    703.0000     54.2032
           20           2      0.6333      0.0067   1489.8222    703.0000     54.1424
           20           3      0.6333      0.0133   1488.9647    703.0000     54.0863
           20           4      0.6333      0.0200   1488.1848    703.0000     54.0354
           20           5      0.6333      0.0267   1487.4875    703.0000     53.9900
           20           6      0.6333      0.0333   1486.8771    703.0000     53.9502
           20           7      0.6333      0.0400   1486.3580    703.0000     53.9165
           20           8      0.6333      0.0467   1485.9339    703.0000     53.8889
           20           9      0.6333      0.0533   1485.6082    703.0000     53.8678
           20          10      0.6333      0.0600   1485.3839    703.0000     53.8532
           20          11      0.6333      0.0667   1485.2636    703.0000     53.8454
           20          12      0.6333      0.0733   1485.2494    703.0000     53.8445
           20          13      0.6333      0.0800   1485.3428    703.0000     53.8505
           20          14      0.6333      0.0867   1485.5450    703.0000     53.8637
           20          15      0.6333      0.0933   1485.8566    703.0000     53.8839
           20          16      0.6333      0.1000   1486.2779    703.0000     53.9113
           20          17      0.6333      0.1067   1486.8085    703.0000     53.9458
           20          18      0.6333      0.1133   1487.4475    703.0000     53.9874
           20          19      0.6333      0.1200   1488.1937    703.0000     54.0360
           20          20      0.6333      0.1267   1489.0452    703.0000     54.0916
           20          21      0.6333      0.1333   1489.9999    703.0000     54.1540
           20          22      0.6333      0.1400   1491.0550    703.0000     54.2231
           20          23      0.6333      0.1467   1492.2074    703.0000     54.2986
           20          24      0.6333      0.1533   1493.4535    703.0000     54.3805
           20          25      0.6333      0.1600   1494.7895    703.0000     54.4685
           20          26      0.6333      0.1667   1496.2110    703.0000     54.5623
           20          27      0.6333      0.1733   1497.7134    703.0000     54.6617
           20          28      0.6333      0.1800   1499.2918    703.0000     54.7663
           20          29      0.6333      0.1867   1500.9409    703.0000     54.8760
           20          30      0.6333      0.1933   1502.6552    703.0000     54.9902
           20          31      0.6333      0.2000   1504.4292    703.0000     55.1088
           21           1      0.6667      0.0000   1491.3294    703.0000     54.2410
           21           2      0.6667      0.0067   1490.4434    703.0000     54.1830
           21           3      0.6667      0.0133   1489.6274    703.0000     54.1296
           21           4      0.6667      0.0200   1488.8864    703.0000     54.0812
           21           5      0.6667      0.0267   1488.2253    703.0000     54.0381
           21           6      0.6667      0.0333   1487.6482    703.0000     54.0005
           21           7      0.6667      0.0400   1487.1592    703.0000     53.9686
           21           8      0.6667      0.0467   1486.7621    703.0000     53.9428
           21           9      0.6667      0.0533   1486.4600    703.0000     53.9231
           21          10      0.6667      0.0600   1486.2560    703.0000     53.9098
           21          11      0.6667      0.0667   1486.1523    703.0000     53.9031
           21          12      0.6667      0.0733   1486.1510    703.0000     53.9030
           21          13      0.6667      0.0800   1486.2538    703.0000     53.9097
           21          14      0.6667      0.0867   1486.4616    703.0000     53.9232
           21          15      0.6667      0.0933   1486.7752    703.0000     53.9436
           21          16      0.6667      0.1000   1487.1946    703.0000     53.9709
           21          17      0.6667      0.1067   1487.7196    703.0000     54.0051
           21          18      0.6667      0.1133   1488.3494    703.0000     54.0462
           21          19      0.6667      0.1200   1489.0827    703.0000     54.0940
           21          20      0.6667      0.1267   1489.9177    703.0000     54.1486
           21          21      0.6667      0.1333   1490.8525    703.0000     54.2098
           21          22      0.6667      0.1400   1491.8843    703.0000     54.2774
           21          23      0.6667      0.1467   1493.0101    703.0000     54.3514
           21          24      0.6667      0.1533   1494.2265    703.0000     54.4314
           21          25      0.6667      0.1600   1495.5299    703.0000     54.5173
           21          26      0.6667      0.1667   1496.9159    703.0000     54.6089
           21          27      0.6667      0.1733   1498.3802    703.0000     54.7059
           21          28      0.6667      0.1800   1499.9180    703.0000     54.8079
           21          29      0.6667      0.1867   1501.5242    703.0000     54.9148
           21          30      0.6667      0.1933   1503.1936    703.0000     55.0262
           21          31      0.6667      0.2000   1504.9208    703.0000     55.1417
           22           1      0.7000      0.0000   1492.0262    703.0000     54.2867
           22           2      0.7000      0.0067   1491.1931    703.0000     54.2321
           22           3      0.7000      0.0133   1490.4272    703.0000     54.1819
           22           4      0.7000      0.0200   1489.7332    703.0000     54.1365
           22           5      0.7000      0.0267   1489.1156    703.0000     54.0962
           22           6      0.7000      0.0333   1488.5786    703.0000     54.0611
           22           7      0.7000      0.0400   1488.1260    703.0000     54.0316
           22           8      0.7000      0.0467   1487.7613    703.0000     54.0078
           22           9      0.7000      0.0533   1487.4877    703.0000     53.9900
           22          10      0.7000      0.0600   1487.3079    703.0000     53.9783
           22          11      0.7000      0.0667   1487.2242    703.0000     53.9728
           22          12      0.7000      0.0733   1487.2386    703.0000     53.9738
           22          13      0.7000      0.0800   1487.3525    703.0000     53.9812
           22          14      0.7000      0.0867   1487.5671    703.0000     53.9952
           22          15      0.7000      0.0933   1487.8828    703.0000     54.0157
           22          16      0.7000      0.1000   1488.3000    703.0000     54.0429
           22          17      0.7000      0.1067   1488.8182    703.0000     54.0768
           22          18      0.7000      0.1133   1489.4367    703.0000     54.1172
           22          19      0.7000      0.1200   1490.1544    703.0000     54.1641
           22          20      0.7000      0.1267   1490.9695    703.0000     54.2175
           22          21      0.7000      0.1333   1491.8802    703.0000     54.2772
           22          22      0.7000      0.1400   1492.8838    703.0000     54.3431
           22          23      0.7000      0.1467   1493.9776    703.0000     54.4150
           22          24      0.7000      0.1533   1495.1583    703.0000     54.4928
           22          25      0.7000      0.1600   1496.4222    703.0000     54.5762
           22          26      0.7000      0.1667   1497.7655    703.0000     54.6651
           22          27      0.7000      0.1733   1499.1838    703.0000     54.7592
           22          28      0.7000      0.1800   1500.6727    703.0000     54.8581
           22          29      0.7000      0.1867   1502.2273    703.0000     54.9617
           22          30      0.7000      0.1933   1503.8426    703.0000     55.0695
           22          31      0.7000      0.2000   1505.5133    703.0000     55.1814
           23           1      0.7333      0.0000   1492.8338    703.0000     54.3398
           23           2      0.7333      0.0067   1492.0620    703.0000     54.2891
           23           3      0.7333      0.0133   1491.3540    703.0000     54.2426
           23           4      0.7333      0.0200   1490.7143    703.0000     54.2007
           23           5      0.7333      0.0267   1490.1472    703.0000     54.1636
           23           6      0.7333      0.0333   1489.6565    703.0000     54.1315
           23           7      0.7333      0.0400   1489.2459    703.0000     54.1047
           23           8      0.7333      0.0467   1488.9187    703.0000     54.0833
           23           9      0.7333      0.0533   1488.6778    703.0000     54.0676
           23          10      0.7333      0.0600   1488.5259    703.0000     54.0577
           23          11      0.7333      0.0667   1488.4652    703.0000     54.0537
           23          12      0.7333      0.0733   1488.4975    703.0000     54.0558
           23          13      0.7333      0.0800   1488.6243    703.0000     54.0641
           23          14      0.7333      0.0867   1488.8464    703.0000     54.0786
           23          15      0.7333      0.0933   1489.1645    703.0000     54.0994
           23          16      0.7333      0.1000   1489.5788    703.0000     54.1264
           23          17      0.7333      0.1067   1490.0890    703.0000     54.1598
           23          18      0.7333      0.1133   1490.6943    703.0000     54.1994
           23          19      0.7333      0.1200   1491.3938    703.0000     54.2453
           23          20      0.7333      0.1267   1492.1858    703.0000     54.2972
           23          21      0.7333      0.1333   1493.0685    703.0000     54.3552
           23          22      0.7333      0.1400   1494.0395    703.0000     54.4191
           23          23      0.7333      0.1467   1495.0961    703.0000     54.4887
           23          24      0.7333      0.1533   1496.2353    703.0000     54.5639
           23          25      0.7333      0.1600   1497.4536    703.0000     54.6445
           23          26      0.7333      0.1667   1498.7474    703.0000     54.7302
           23          27      0.7333      0.1733   1500.1127    703.0000     54.8209
           23          28      0.7333      0.1800   1501.5450    703.0000     54.9162
           23          29      0.7333      0.1867   1503.0400    703.0000     55.0159
           23          30      0.7333      0.1933   1504.5927    703.0000     55.1197
           23          31      0.7333      0.2000   1506.1983    703.0000     55.2273
           24           1      0.7667      0.0000   1493.7391    703.0000     54.3993
           24           2      0.7667      0.0067   1493.0360    703.0000     54.3531
           24           3      0.7667      0.0133   1492.3929    703.0000     54.3108
           24           4      0.7667      0.0200   1491.8140    703.0000     54.2728
           24           5      0.7667      0.0267   1491.3032    703.0000     54.2393
           24           6      0.7667      0.0333   1490.8641    703.0000     54.2105
           24           7      0.7667      0.0400   1490.5003    703.0000     54.1867
           24           8      0.7667      0.0467   1490.2148    703.0000     54.1680
           24           9      0.7667      0.0533   1490.0104    703.0000     54.1547
           24          10      0.7667      0.0600   1489.8895    703.0000     54.1468
           24          11      0.7667      0.0667   1489.8542    703.0000     54.1444
           24          12      0.7667      0.0733   1489.9062    703.0000     54.1479
           24          13      0.7667      0.0800   1490.0469    703.0000     54.1570
           24          14      0.7667      0.0867   1490.2771    703.0000     54.1721
           24          15      0.7667      0.0933   1490.5975    703.0000     54.1931
           24          16      0.7667      0.1000   1491.0082    703.0000     54.2200
           24          17      0.7667      0.1067   1491.5091    703.0000     54.2528
           24          18      0.7667      0.1133   1492.0994    703.0000     54.2915
           24          19      0.7667      0.1200   1492.7782    703.0000     54.3361
           24          20      0.7667      0.1267   1493.5440    703.0000     54.3865
           24          21      0.7667      0.1333   1494.3952    703.0000     54.4425
           24          22      0.7667      0.1400   1495.3294    703.0000     54.5041
           24          23      0.7667      0.1467   1496.3443    703.0000     54.5711
           24          24      0.7667      0.1533   1497.4370    703.0000     54.6434
           24          25      0.7667      0.1600   1498.6044    703.0000     54.7207
           24          26      0.7667      0.1667   1499.8428    703.0000     54.8029
           24          27      0.7667      0.1733   1501.1487    703.0000     54.8898
           24          28      0.7667      0.1800   1502.5179    703.0000     54.9811
           24          29      0.7667      0.1867   1503.9463    703.0000     55.0765
           24          30      0.7667      0.1933   1505.4292    703.0000     55.1758
           24          31      0.7667      0.2000   1506.9622    703.0000     55.2786
           25           1      0.8000      0.0000   1494.7244    703.0000     54.4642
           25           2      0.8000      0.0067   1494.0960    703.0000     54.4228
           25           3      0.8000      0.0133   1493.5233    703.0000     54.3851
           25           4      0.8000      0.0200   1493.0103    703.0000     54.3514
           25           5      0.8000      0.0267   1492.5604    703.0000     54.3218
           25           6      0.8000      0.0333   1492.1773    703.0000     54.2967
           25           7      0.8000      0.0400   1491.8639    703.0000     54.2761
           25           8      0.8000      0.0467   1491.6233    703.0000     54.2603
           25           9      0.8000      0.0533   1491.4579    703.0000     54.2495
           25          10      0.8000      0.0600   1491.3700    703.0000     54.2437
           25          11      0.8000      0.0667   1491.3616    703.0000     54.2431
           25          12      0.8000      0.0733   1491.4343    703.0000     54.2479
           25          13      0.8000      0.0800   1491.5893    703.0000     54.2581
           25          14      0.8000      0.0867   1491.8276    703.0000     54.2737
           25          15      0.8000      0.0933   1492.1497    703.0000     54.2948
           25          16      0.8000      0.1000   1492.5559    703.0000     54.3215
           25          17      0.8000      0.1067   1493.0458    703.0000     54.3537
           25          18      0.8000      0.1133   1493.6191    703.0000     54.3914
           25          19      0.8000      0.1200   1494.2748    703.0000     54.4346
           25          20      0.8000      0.1267   1495.0116    703.0000     54.4831
           25          21      0.8000      0.1333   1495.8280    703.0000     54.5370
           25          22      0.8000      0.1400   1496.7220    703.0000     54.5961
           25          23      0.8000      0.1467   1497.6913    703.0000     54.6602
           25          24      0.8000      0.1533   1498.7333    703.0000     54.7293
           25          25      0.8000      0.1600   1499.8451    703.0000     54.8031
           25          26      0.8000      0.1667   1501.0235    703.0000     54.8815
           25          27      0.8000      0.1733   1502.2651    703.0000     54.9642
           25          28      0.8000      0.1800   1503.5661    703.0000     55.0511
           25          29      0.8000      0.1867   1504.9225    703.0000     55.1418
           25          30      0.8000      0.1933   1506.3303    703.0000     55.2362
           25          31      0.8000      0.2000   1507.7850    703.0000     55.3339
           26           1      0.8333      0.0000   1495.7668    703.0000     54.5330
           26           2      0.8333      0.0067   1495.2174    703.0000     54.4967
           26           3      0.8333      0.0133   1494.7190    703.0000     54.4638
           26           4      0.8333      0.0200   1494.2752    703.0000     54.4346
           26           5      0.8333      0.0267   1493.8893    703.0000     54.4092
           26           6      0.8333      0.0333   1493.5645    703.0000     54.3878
           26           7      0.8333      0.0400   1493.3037    703.0000     54.3707
           26           8      0.8333      0.0467   1493.1094    703.0000     54.3579
           26           9      0.8333      0.0533   1492.9842    703.0000     54.3497
           26          10      0.8333      0.0600   1492.9300    703.0000     54.3461
           26          11      0.8333      0.0667   1492.9487    703.0000     54.3473
           26          12      0.8333      0.0733   1493.0418    703.0000     54.3534
           26          13      0.8333      0.0800   1493.2106    703.0000     54.3645
           26          14      0.8333      0.0867   1493.4558    703.0000     54.3807
           26          15      0.8333      0.0933   1493.7782    703.0000     54.4019
           26          16      0.8333      0.1000   1494.1778    703.0000     54.4282
           26          17      0.8333      0.1067   1494.6548    703.0000     54.4596
           26          18      0.8333      0.1133   1495.2086    703.0000     54.4961
           26          19      0.8333      0.1200   1495.8385    703.0000     54.5377
           26          20      0.8333      0.1267   1496.5434    703.0000     54.5843
           26          21      0.8333      0.1333   1497.3220    703.0000     54.6358
           26          22      0.8333      0.1400   1498.1725    703.0000     54.6921
           26          23      0.8333      0.1467   1499.0929    703.0000     54.7531
           26          24      0.8333      0.1533   1500.0810    703.0000     54.8188
           26          25      0.8333      0.1600   1501.1340    703.0000     54.8888
           26          26      0.8333      0.1667   1502.2491    703.0000     54.9631
           26          27      0.8333      0.1733   1503.4232    703.0000     55.0415
           26          28      0.8333      0.1800   1504.6528    703.0000     55.1238
           26          29      0.8333      0.1867   1505.9344    703.0000     55.2096
           26          30      0.8333      0.1933   1507.2639    703.0000     55.2989
           26          31      0.8333      0.2000   1508.6376    703.0000     55.3913
           27           1      0.8667      0.0000   1496.8394    703.0000     54.6038
           27           2      0.8667      0.0067   1496.3710    703.0000     54.5729
           27           3      0.8667      0.0133   1495.9486    703.0000     54.5450
           27           4      0.8667      0.0200   1495.5753    703.0000     54.5203
           27           5      0.8667      0.0267   1495.2543    703.0000     54.4991
           27           6      0.8667      0.0333   1494.9883    703.0000     54.4816
           27           7      0.8667      0.0400   1494.7799    703.0000     54.4678
           27           8      0.8667      0.0467   1494.6316    703.0000     54.4581
           27           9      0.8667      0.0533   1494.5455    703.0000     54.4524
           27          10      0.8667      0.0600   1494.5236    703.0000     54.4510
           27          11      0.8667      0.0667   1494.5676    703.0000     54.4539
           27          12      0.8667      0.0733   1494.6789    703.0000     54.4612
           27          13      0.8667      0.0800   1494.8588    703.0000     54.4731
           27          14      0.8667      0.0867   1495.1082    703.0000     54.4895
           27          15      0.8667      0.0933   1495.4276    703.0000     54.5106
           27          16      0.8667      0.1000   1495.8175    703.0000     54.5363
           27          17      0.8667      0.1067   1496.2779    703.0000     54.5667
           27          18      0.8667      0.1133   1496.8085    703.0000     54.6018
           27          19      0.8667      0.1200   1497.4090    703.0000     54.6415
           27          20      0.8667      0.1267   1498.0784    703.0000     54.6859
           27          21      0.8667      0.1333   1498.8158    703.0000     54.7347
           27          22      0.8667      0.1400   1499.6196    703.0000     54.7881
           27          23      0.8667      0.1467   1500.4882    703.0000     54.8458
           27          24      0.8667      0.1533   1501.4196    703.0000     54.9078
           27          25      0.8667      0.1600   1502.4116    703.0000     54.9740
           27          26      0.8667      0.1667   1503.4618    703.0000     55.0441
           27          27      0.8667      0.1733   1504.5671    703.0000     55.1180
           27          28      0.8667      0.1800   1505.7248    703.0000     55.1956
           27          29      0.8667      0.1867   1506.9313    703.0000     55.2766
           27          30      0.8667      0.1933   1508.1833    703.0000     55.3607
           27          31      0.8667      0.2000   1509.4769    703.0000     55.4479
           28           1      0.9000      0.0000   1497.9130    703.0000     54.6749
           28           2      0.9000      0.0067   1497.5254    703.0000     54.6492
           28           3      0.9000      0.0133   1497.1783    703.0000     54.6262
           28           4      0.9000      0.0200   1496.8745    703.0000     54.6062
           28           5      0.9000      0.0267   1496.6167    703.0000     54.5891
           28           6      0.9000      0.0333   1496.4072    703.0000     54.5753
           28           7      0.9000      0.0400   1496.2486    703.0000     54.5648
           28           8      0.9000      0.0467   1496.1430    703.0000     54.5578
           28           9      0.9000      0.0533   1496.0924    703.0000     54.5545
           28          10      0.9000      0.0600   1496.0985    703.0000     54.5549
           28          11      0.9000      0.0667   1496.1631    703.0000     54.5591
           28          12      0.9000      0.0733   1496.2876    703.0000     54.5673
           28          13      0.9000      0.0800   1496.4730    703.0000     54.5796
           28          14      0.9000      0.0867   1496.7206    703.0000     54.5960
           28          15      0.9000      0.0933   1497.0309    703.0000     54.6165
           28          16      0.9000      0.1000   1497.4046    703.0000     54.6412
           28          17      0.9000      0.1067   1497.8420    703.0000     54.6702
           28          18      0.9000      0.1133   1498.3432    703.0000     54.7034
           28          19      0.9000      0.1200   1498.9080    703.0000     54.7409
           28          20      0.9000      0.1267   1499.5359    703.0000     54.7825
           28          21      0.9000      0.1333   1500.2264    703.0000     54.8284
           28          22      0.9000      0.1400   1500.9786    703.0000     54.8785
           28          23      0.9000      0.1467   1501.7912    703.0000     54.9326
           28          24      0.9000      0.1533   1502.6629    703.0000     54.9907
           28          25      0.9000      0.1600   1503.5919    703.0000     55.0528
           28          26      0.9000      0.1667   1504.5762    703.0000     55.1186
           28          27      0.9000      0.1733   1505.6136    703.0000     55.1881
           28          28      0.9000      0.1800   1506.7014    703.0000     55.2611
           28          29      0.9000      0.1867   1507.8368    703.0000     55.3374
           28          30      0.9000      0.1933   1509.0165    703.0000     55.4169
           28          31      0.9000      0.2000   1510.2371    703.0000     55.4992
           29           1      0.9333      0.0000   1498.9600    703.0000     54.7443
           29           2      0.9333      0.0067   1498.6509    703.0000     54.7238
           29           3      0.9333      0.0133   1498.3762    703.0000     54.7056
           29           4      0.9333      0.0200   1498.1382    703.0000     54.6898
           29           5      0.9333      0.0267   1497.9393    703.0000     54.6766
           29           6      0.9333      0.0333   1497.7815    703.0000     54.6662
           29           7      0.9333      0.0400   1497.6670    703.0000     54.6586
           29           8      0.9333      0.0467   1497.5976    703.0000     54.6540
           29           9      0.9333      0.0533   1497.5753    703.0000     54.6525
           29          10      0.9333      0.0600   1497.6016    703.0000     54.6543
           29          11      0.9333      0.0667   1497.6782    703.0000     54.6593
           29          12      0.9333      0.0733   1497.8064    703.0000     54.6678
           29          13      0.9333      0.0800   1497.9874    703.0000     54.6798
           29          14      0.9333      0.0867   1498.2225    703.0000     54.6954
           29          15      0.9333      0.0933   1498.5125    703.0000     54.7146
           29          16      0.9333      0.1000   1498.8583    703.0000     54.7376
           29          17      0.9333      0.1067   1499.2607    703.0000     54.7643
           29          18      0.9333      0.1133   1499.7200    703.0000     54.7948
           29          19      0.9333      0.1200   1500.2368    703.0000     54.8291
           29          20      0.9333      0.1267   1500.8113    703.0000     54.8673
           29          21      0.9333      0.1333   1501.4435    703.0000     54.9094
           29          22      0.9333      0.1400   1502.1334    703.0000     54.9554
           29          23      0.9333      0.1467   1502.8806    703.0000     55.0053
           29          24      0.9333      0.1533   1503.6848    703.0000     55.0590
           29          25      0.9333      0.1600   1504.5451    703.0000     55.1165
           29          26      0.9333      0.1667   1505.4608    703.0000     55.1779
           29          27      0.9333      0.1733   1506.4303    703.0000     55.2429
           29          28      0.9333      0.1800   1507.4522    703.0000     55.3116
           29          29      0.9333      0.1867   1508.5242    703.0000     55.3837
           29          30      0.9333      0.1933   1509.6438    703.0000     55.4592
           29          31      0.9333      0.2000   1510.8077    703.0000     55.5377
           30           1      0.9667      0.0000   1499.9617    703.0000     54.8108
           30           2      0.9667      0.0067   1499.7271    703.0000     54.7952
           30           3      0.9667      0.0133   1499.5201    703.0000     54.7815
           30           4      0.9667      0.0200   1499.3424    703.0000     54.7697
           30           5      0.9667      0.0267   1499.1959    703.0000     54.7600
           30           6      0.9667      0.0333   1499.0824    703.0000     54.7524
           30           7      0.9667      0.0400   1499.0036    703.0000     54.7472
           30           8      0.9667      0.0467   1498.9611    703.0000     54.7444
           30           9      0.9667      0.0533   1498.9564    703.0000     54.7441
           30          10      0.9667      0.0600   1498.9911    703.0000     54.7464
           30          11      0.9667      0.0667   1499.0666    703.0000     54.7514
           30          12      0.9667      0.0733   1499.1841    703.0000     54.7592
           30          13      0.9667      0.0800   1499.3450    703.0000     54.7699
           30          14      0.9667      0.0867   1499.5504    703.0000     54.7835
           30          15      0.9667      0.0933   1499.8015    703.0000     54.8002
           30          16      0.9667      0.1000   1500.0993    703.0000     54.8200
           30          17      0.9667      0.1067   1500.4451    703.0000     54.8430
           30          18      0.9667      0.1133   1500.8398    703.0000     54.8692
           30          19      0.9667      0.1200   1501.2846    703.0000     54.8988
           30          20      0.9667      0.1267   1501.7804    703.0000     54.9319
           30          21      0.9667      0.1333   1502.3286    703.0000     54.9684
           30          22      0.9667      0.1400   1502.9303    703.0000     55.0086
           30          23      0.9667      0.1467   1503.5867    703.0000     55.0524
           30          24      0.9667      0.1533   1504.2993    703.0000     55.1001
           30          25      0.9667      0.1600   1505.0695    703.0000     55.1517
           30          26      0.9667      0.1667   1505.8988    703.0000     55.2072
           30          27      0.9667      0.1733   1506.7886    703.0000     55.2670
           30          28      0.9667      0.1800   1507.7405    703.0000     55.3309
           30          29      0.9667      0.1867   1508.7551    703.0000     55.3993
           30          30      0.9667      0.1933   1509.8328    703.0000     55.4719
           30          31      0.9667      0.2000   1510.9721    703.0000     55.5489
           31           1      1.0000      0.0000   1500.9099    703.0000     54.8739
           31           2      1.0000      0.0067   1500.7454    703.0000     54.8629
           31           3      1.0000      0.0133   1500.6005    703.0000     54.8533
           31           4      1.0000      0.0200   1500.4767    703.0000     54.8451
           31           5      1.0000      0.0267   1500.3752    703.0000     54.8383
           31           6      1.0000      0.0333   1500.2974    703.0000     54.8331
           31           7      1.0000      0.0400   1500.2446    703.0000     54.8296
           31           8      1.0000      0.0467   1500.2178    703.0000     54.8279
           31           9      1.0000      0.0533   1500.2183    703.0000     54.8279
           31          10      1.0000      0.0600   1500.2471    703.0000     54.8298
           31          11      1.0000      0.0667   1500.3054    703.0000     54.8337
           31          12      1.0000      0.0733   1500.3942    703.0000     54.8396
           31          13      1.0000      0.0800   1500.5144    703.0000     54.8476
           31          14      1.0000      0.0867   1500.6671    703.0000     54.8577
           31          15      1.0000      0.0933   1500.8534    703.0000     54.8701
           31          16      1.0000      0.1000   1501.0741    703.0000     54.8848
           31          17      1.0000      0.1067   1501.3306    703.0000     54.9019
           31          18      1.0000      0.1133   1501.6238    703.0000     54.9214
           31          19      1.0000      0.1200   1501.9551    703.0000     54.9435
           31          20      1.0000      0.1267   1502.3261    703.0000     54.9683
           31          21      1.0000      0.1333   1502.7386    703.0000     54.9958
           31          22      1.0000      0.1400   1503.1946    703.0000     55.0262
           31          23      1.0000      0.1467   1503.6969    703.0000     55.0598
           31          24      1.0000      0.1533   1504.2491    703.0000     55.0967
           31          25      1.0000      0.1600   1504.8554    703.0000     55.1373
           31          26      1.0000      0.1667   1505.5220    703.0000     55.1820
           31          27      1.0000      0.1733   1506.2565    703.0000     55.2312
           31          28      1.0000      0.1800   1507.0696    703.0000     55.2858
           31          29      1.0000      0.1867   1507.9756    703.0000     55.3468
           31          30      1.0000      0.1933   1508.9942    703.0000     55.4154
           31          31      1.0000      0.2000   1510.1526    703.0000     55.4935
