 ====================================================================================
               Transient state solution for a 2D rectangular plate
                    for applications in steel reheating
                 e.g. Reheating furnaces for rolling processing
 ====================================================================================
 Author: Dickson Alves de Souza

 Based on lectures by professor Roberto Parreiras Tavares

 and book Numerical Heat Transfer and Fluid Flow
 by Suhas V. Patankar (1980)

 Federal University of Minas Gerais (UFMG)
 October 26th, 2017
 ====================================================================================
                              Input parameters:

 Lenght in X direction (meters):           1.0000
 Lenght in Y direction (meters):           0.2000
 Nodes in X direction:                         31
 Nodes in Y direction:                         31
 ====================================================================================

                       STAGE                1/  5
                       START Time:         0.0000
                       END Time:        1140.0000
                       Iterations:              843

 ====================================================================================
 Temperature of fluid at left face (T left):             1223.1500
 Temperature of fluid at right face (T right):           1223.1500
 Temperature of fluid at bottom face (T bottom):         1223.1500
 Temperature of fluid at top face (T top):               1223.1500
 ------------------------------------------------------------------------------------
 Heat transfer coefficient at left face (H left):          50.0000
 Heat transfer coefficient at right face (H right):        50.0000
 Heat transfer coefficient at bottom face (H bottom):       8.0000
 Heat transfer coefficient at top face (H top):           150.0000
 ====================================================================================


 ====================================================================================

                       STAGE                2/  5
                       START Time:      1140.0000
                       END Time:        3060.0000
                       Iterations:              843

 ====================================================================================
 Temperature of fluid at left face (T left):             1423.1500
 Temperature of fluid at right face (T right):           1423.1500
 Temperature of fluid at bottom face (T bottom):         1423.1500
 Temperature of fluid at top face (T top):               1423.1500
 ------------------------------------------------------------------------------------
 Heat transfer coefficient at left face (H left):          50.0000
 Heat transfer coefficient at right face (H right):        50.0000
 Heat transfer coefficient at bottom face (H bottom):       8.0000
 Heat transfer coefficient at top face (H top):           150.0000
 ====================================================================================


 ====================================================================================

                       STAGE                3/  5
                       START Time:      3060.0000
                       END Time:        4980.0000
                       Iterations:              843

 ====================================================================================
 Temperature of fluid at left face (T left):             1513.1500
 Temperature of fluid at right face (T right):           1513.1500
 Temperature of fluid at bottom face (T bottom):         1513.1500
 Temperature of fluid at top face (T top):               1513.1500
 ------------------------------------------------------------------------------------
 Heat transfer coefficient at left face (H left):          50.0000
 Heat transfer coefficient at right face (H right):        50.0000
 Heat transfer coefficient at bottom face (H bottom):       8.0000
 Heat transfer coefficient at top face (H top):           150.0000
 ====================================================================================


 SOLUTION of LINEAR SYSTEM: TDMA (tri-diagonal matrix algorithm)
      ADI approach employed in solution.
 Tolerance:       0.0010

 ====================================================================================
                    Calculation Results
 Current time:    4460.0000000000000       seconds
 Maximum Temperature :    1486.8321010118248
 Minimum Temperature :    1317.6329651345673
 Average(algebraic, non-weigthed) Temperature :    1388.8983767091815
 ====================================================================================
            I           J        X(m)        Y(m)        T(K)  Cp(J/kg.K) K(W/sq-m.K)
 ====================================================================================
            1           1      0.0000      0.0000   1482.7853    703.0000     53.6849
            1           2      0.0000      0.0067   1480.4548    703.0000     53.5346
            1           3      0.0000      0.0133   1478.2482    703.0000     53.3928
            1           4      0.0000      0.0200   1476.1752    703.0000     53.2600
            1           5      0.0000      0.0267   1474.2452    703.0000     53.1369
            1           6      0.0000      0.0333   1472.4671    703.0000     53.0238
            1           7      0.0000      0.0400   1470.8491    703.0000     52.9212
            1           8      0.0000      0.0467   1469.3990    703.0000     52.8295
            1           9      0.0000      0.0533   1468.1238    703.0000     52.7491
            1          10      0.0000      0.0600   1467.0296    703.0000     52.6802
            1          11      0.0000      0.0667   1466.1219    703.0000     52.6232
            1          12      0.0000      0.0733   1465.4049    703.0000     52.5782
            1          13      0.0000      0.0800   1464.8823    703.0000     52.5454
            1          14      0.0000      0.0867   1464.5565    703.0000     52.5250
            1          15      0.0000      0.0933   1464.4290    703.0000     52.5171
            1          16      0.0000      0.1000   1464.5004    703.0000     52.5215
            1          17      0.0000      0.1067   1464.7700    703.0000     52.5384
            1          18      0.0000      0.1133   1465.2362    703.0000     52.5676
            1          19      0.0000      0.1200   1465.8966    703.0000     52.6090
            1          20      0.0000      0.1267   1466.7474    703.0000     52.6625
            1          21      0.0000      0.1333   1467.7843    703.0000     52.7277
            1          22      0.0000      0.1400   1469.0018    703.0000     52.8045
            1          23      0.0000      0.1467   1470.3937    703.0000     52.8924
            1          24      0.0000      0.1533   1471.9530    703.0000     52.9912
            1          25      0.0000      0.1600   1473.6719    703.0000     53.1004
            1          26      0.0000      0.1667   1475.5420    703.0000     53.2196
            1          27      0.0000      0.1733   1477.5544    703.0000     53.3483
            1          28      0.0000      0.1800   1479.6996    703.0000     53.4860
            1          29      0.0000      0.1867   1481.9678    703.0000     53.6321
            1          30      0.0000      0.1933   1484.3488    703.0000     53.7861
            1          31      0.0000      0.2000   1486.8321    703.0000     53.9473
            2           1      0.0333      0.0000   1470.1827    703.0000     52.8791
            2           2      0.0333      0.0067   1466.8737    703.0000     52.6704
            2           3      0.0333      0.0133   1463.7369    703.0000     52.4738
            2           4      0.0333      0.0200   1460.7869    703.0000     52.2898
            2           5      0.0333      0.0267   1458.0378    703.0000     52.1193
            2           6      0.0333      0.0333   1455.5028    703.0000     51.9629
            2           7      0.0333      0.0400   1453.1945    703.0000     51.8210
            2           8      0.0333      0.0467   1451.1245    703.0000     51.6944
            2           9      0.0333      0.0533   1449.3030    703.0000     51.5833
            2          10      0.0333      0.0600   1447.7396    703.0000     51.4883
            2          11      0.0333      0.0667   1446.4421    703.0000     51.4097
            2          12      0.0333      0.0733   1445.4172    703.0000     51.3477
            2          13      0.0333      0.0800   1444.6702    703.0000     51.3027
            2          14      0.0333      0.0867   1444.2049    703.0000     51.2746
            2          15      0.0333      0.0933   1444.0236    703.0000     51.2637
            2          16      0.0333      0.1000   1444.1269    703.0000     51.2699
            2          17      0.0333      0.1067   1444.5140    703.0000     51.2932
            2          18      0.0333      0.1133   1445.1826    703.0000     51.3336
            2          19      0.0333      0.1200   1446.1288    703.0000     51.3908
            2          20      0.0333      0.1267   1447.3473    703.0000     51.4645
            2          21      0.0333      0.1333   1448.8314    703.0000     51.5546
            2          22      0.0333      0.1400   1450.5730    703.0000     51.6607
            2          23      0.0333      0.1467   1452.5628    703.0000     51.7823
            2          24      0.0333      0.1533   1454.7903    703.0000     51.9190
            2          25      0.0333      0.1600   1457.2440    703.0000     52.0703
            2          26      0.0333      0.1667   1459.9115    703.0000     52.2354
            2          27      0.0333      0.1733   1462.7795    703.0000     52.4140
            2          28      0.0333      0.1800   1465.8341    703.0000     52.6051
            2          29      0.0333      0.1867   1469.0608    703.0000     52.8082
            2          30      0.0333      0.1933   1472.4445    703.0000     53.0224
            2          31      0.0333      0.2000   1475.9699    703.0000     53.2469
            3           1      0.0667      0.0000   1458.1085    703.0000     52.1237
            3           2      0.0667      0.0067   1453.8562    703.0000     51.8616
            3           3      0.0667      0.0133   1449.8200    703.0000     51.6148
            3           4      0.0667      0.0200   1446.0197    703.0000     51.3842
            3           5      0.0667      0.0267   1442.4744    703.0000     51.1705
            3           6      0.0667      0.0333   1439.2020    703.0000     50.9746
            3           7      0.0667      0.0400   1436.2198    703.0000     50.7972
            3           8      0.0667      0.0467   1433.5433    703.0000     50.6389
            3           9      0.0667      0.0533   1431.1870    703.0000     50.5002
            3          10      0.0667      0.0600   1429.1635    703.0000     50.3817
            3          11      0.0667      0.0667   1427.4840    703.0000     50.2836
            3          12      0.0667      0.0733   1426.1576    703.0000     50.2065
            3          13      0.0667      0.0800   1425.1915    703.0000     50.1504
            3          14      0.0667      0.0867   1424.5910    703.0000     50.1156
            3          15      0.0667      0.0933   1424.3591    703.0000     50.1022
            3          16      0.0667      0.1000   1424.4969    703.0000     50.1102
            3          17      0.0667      0.1067   1425.0033    703.0000     50.1395
            3          18      0.0667      0.1133   1425.8750    703.0000     50.1901
            3          19      0.0667      0.1200   1427.1067    703.0000     50.2617
            3          20      0.0667      0.1267   1428.6911    703.0000     50.3541
            3          21      0.0667      0.1333   1430.6189    703.0000     50.4669
            3          22      0.0667      0.1400   1432.8791    703.0000     50.5997
            3          23      0.0667      0.1467   1435.4589    703.0000     50.7521
            3          24      0.0667      0.1533   1438.3441    703.0000     50.9235
            3          25      0.0667      0.1600   1441.5189    703.0000     51.1132
            3          26      0.0667      0.1667   1444.9664    703.0000     51.3205
            3          27      0.0667      0.1733   1448.6687    703.0000     51.5448
            3          28      0.0667      0.1800   1452.6070    703.0000     51.7850
            3          29      0.0667      0.1867   1456.7616    703.0000     52.0405
            3          30      0.0667      0.1933   1461.1125    703.0000     52.3101
            3          31      0.0667      0.2000   1465.6393    703.0000     52.5929
            4           1      0.1000      0.0000   1446.8302    703.0000     51.4332
            4           2      0.1000      0.0067   1441.6920    703.0000     51.1236
            4           3      0.1000      0.0133   1436.8094    703.0000     50.8322
            4           4      0.1000      0.0200   1432.2073    703.0000     50.5602
            4           5      0.1000      0.0267   1427.9096    703.0000     50.3085
            4           6      0.1000      0.0333   1423.9395    703.0000     50.0779
            4           7      0.1000      0.0400   1420.3184    703.0000     49.8693
            4           8      0.1000      0.0467   1417.0667    703.0000     49.6833
            4           9      0.1000      0.0533   1414.2025    703.0000     49.5206
            4          10      0.1000      0.0600   1411.7422    703.0000     49.3817
            4          11      0.1000      0.0667   1409.7000    703.0000     49.2669
            4          12      0.1000      0.0733   1408.0877    703.0000     49.1767
            4          13      0.1000      0.0800   1406.9147    703.0000     49.1112
            4          14      0.1000      0.0867   1406.1875    703.0000     49.0707
            4          15      0.1000      0.0933   1405.9103    703.0000     49.0553
            4          16      0.1000      0.1000   1406.0842    703.0000     49.0650
            4          17      0.1000      0.1067   1406.7079    703.0000     49.0997
            4          18      0.1000      0.1133   1407.7772    703.0000     49.1593
            4          19      0.1000      0.1200   1409.2851    703.0000     49.2437
            4          20      0.1000      0.1267   1411.2223    703.0000     49.3524
            4          21      0.1000      0.1333   1413.5768    703.0000     49.4852
            4          22      0.1000      0.1400   1416.3344    703.0000     49.6417
            4          23      0.1000      0.1467   1419.4788    703.0000     49.8212
            4          24      0.1000      0.1533   1422.9916    703.0000     50.0231
            4          25      0.1000      0.1600   1426.8530    703.0000     50.2469
            4          26      0.1000      0.1667   1431.0412    703.0000     50.4917
            4          27      0.1000      0.1733   1435.5335    703.0000     50.7565
            4          28      0.1000      0.1800   1440.3062    703.0000     51.0406
            4          29      0.1000      0.1867   1445.3345    703.0000     51.3427
            4          30      0.1000      0.1933   1450.5934    703.0000     51.6620
            4          31      0.1000      0.2000   1456.0572    703.0000     51.9970
            5           1      0.1333      0.0000   1436.5659    703.0000     50.8177
            5           2      0.1333      0.0067   1430.6181    703.0000     50.4668
            5           3      0.1333      0.0133   1424.9605    703.0000     50.1370
            5           4      0.1333      0.0200   1419.6230    703.0000     49.8294
            5           5      0.1333      0.0267   1414.6346    703.0000     49.5451
            5           6      0.1333      0.0333   1410.0229    703.0000     49.2850
            5           7      0.1333      0.0400   1405.8141    703.0000     49.0500
            5           8      0.1333      0.0467   1402.0326    703.0000     48.8407
            5           9      0.1333      0.0533   1398.7006    703.0000     48.6578
            5          10      0.1333      0.0600   1395.8381    703.0000     48.5018
            5          11      0.1333      0.0667   1393.4622    703.0000     48.3731
            5          12      0.1333      0.0733   1391.5874    703.0000     48.2720
            5          13      0.1333      0.0800   1390.2249    703.0000     48.1989
            5          14      0.1333      0.0867   1389.3829    703.0000     48.1538
            5          15      0.1333      0.0933   1389.0663    703.0000     48.1369
            5          16      0.1333      0.1000   1389.2767    703.0000     48.1481
            5          17      0.1333      0.1067   1390.0121    703.0000     48.1875
            5          18      0.1333      0.1133   1391.2675    703.0000     48.2548
            5          19      0.1333      0.1200   1393.0344    703.0000     48.3500
            5          20      0.1333      0.1267   1395.3012    703.0000     48.4726
            5          21      0.1333      0.1333   1398.0533    703.0000     48.6224
            5          22      0.1333      0.1400   1401.2735    703.0000     48.7989
            5          23      0.1333      0.1467   1404.9418    703.0000     49.0015
            5          24      0.1333      0.1533   1409.0360    703.0000     49.2297
            5          25      0.1333      0.1600   1413.5317    703.0000     49.4827
            5          26      0.1333      0.1667   1418.4029    703.0000     49.7596
            5          27      0.1333      0.1733   1423.6221    703.0000     50.0596
            5          28      0.1333      0.1800   1429.1606    703.0000     50.3815
            5          29      0.1333      0.1867   1434.9891    703.0000     50.7243
            5          30      0.1333      0.1933   1441.0773    703.0000     51.0867
            5          31      0.1333      0.2000   1447.3949    703.0000     51.4674
            6           1      0.1667      0.0000   1427.4629    703.0000     50.2824
            6           2      0.1667      0.0067   1420.7946    703.0000     49.8966
            6           3      0.1667      0.0133   1414.4465    703.0000     49.5345
            6           4      0.1667      0.0200   1408.4531    703.0000     49.1971
            6           5      0.1667      0.0267   1402.8479    703.0000     48.8857
            6           6      0.1667      0.0333   1397.6629    703.0000     48.6011
            6           7      0.1667      0.0400   1392.9287    703.0000     48.3443
            6           8      0.1667      0.0467   1388.6735    703.0000     48.1159
            6           9      0.1667      0.0533   1384.9232    703.0000     47.9165
            6          10      0.1667      0.0600   1381.7011    703.0000     47.7467
            6          11      0.1667      0.0667   1379.0273    703.0000     47.6068
            6          12      0.1667      0.0733   1376.9184    703.0000     47.4971
            6          13      0.1667      0.0800   1375.3878    703.0000     47.4178
            6          14      0.1667      0.0867   1374.4449    703.0000     47.3691
            6          15      0.1667      0.0933   1374.0953    703.0000     47.3511
            6          16      0.1667      0.1000   1374.3409    703.0000     47.3638
            6          17      0.1667      0.1067   1375.1794    703.0000     47.4070
            6          18      0.1667      0.1133   1376.6046    703.0000     47.4808
            6          19      0.1667      0.1200   1378.6068    703.0000     47.5848
            6          20      0.1667      0.1267   1381.1722    703.0000     47.7189
            6          21      0.1667      0.1333   1384.2839    703.0000     47.8827
            6          22      0.1667      0.1400   1387.9214    703.0000     48.0757
            6          23      0.1667      0.1467   1392.0615    703.0000     48.2975
            6          24      0.1667      0.1533   1396.6783    703.0000     48.5475
            6          25      0.1667      0.1600   1401.7434    703.0000     48.8248
            6          26      0.1667      0.1667   1407.2265    703.0000     49.1286
            6          27      0.1667      0.1733   1413.0958    703.0000     49.4580
            6          28      0.1667      0.1800   1419.3180    703.0000     49.8120
            6          29      0.1667      0.1867   1425.8592    703.0000     50.1891
            6          30      0.1667      0.1933   1432.6848    703.0000     50.5883
            6          31      0.1667      0.2000   1439.7601    703.0000     51.0079
            7           1      0.2000      0.0000   1419.5930    703.0000     49.8277
            7           2      0.2000      0.0067   1412.3001    703.0000     49.4131
            7           3      0.2000      0.0133   1405.3530    703.0000     49.0244
            7           4      0.2000      0.0200   1398.7901    703.0000     48.6627
            7           5      0.2000      0.0267   1392.6491    703.0000     48.3292
            7           6      0.2000      0.0333   1386.9660    703.0000     48.0249
            7           7      0.2000      0.0400   1381.7750    703.0000     47.7505
            7           8      0.2000      0.0467   1377.1080    703.0000     47.5069
            7           9      0.2000      0.0533   1372.9943    703.0000     47.2945
            7          10      0.2000      0.0600   1369.4599    703.0000     47.1138
            7          11      0.2000      0.0667   1366.5275    703.0000     46.9651
            7          12      0.2000      0.0733   1364.2160    703.0000     46.8487
            7          13      0.2000      0.0800   1362.5404    703.0000     46.7648
            7          14      0.2000      0.0867   1361.5112    703.0000     46.7134
            7          15      0.2000      0.0933   1361.1349    703.0000     46.6947
            7          16      0.2000      0.1000   1361.4132    703.0000     46.7086
            7          17      0.2000      0.1067   1362.3437    703.0000     46.7550
            7          18      0.2000      0.1133   1363.9194    703.0000     46.8339
            7          19      0.2000      0.1200   1366.1289    703.0000     46.9450
            7          20      0.2000      0.1267   1368.9569    703.0000     47.0882
            7          21      0.2000      0.1333   1372.3840    703.0000     47.2632
            7          22      0.2000      0.1400   1376.3872    703.0000     47.4695
            7          23      0.2000      0.1467   1380.9401    703.0000     47.7067
            7          24      0.2000      0.1533   1386.0134    703.0000     47.9743
            7          25      0.2000      0.1600   1391.5752    703.0000     48.2714
            7          26      0.2000      0.1667   1397.5914    703.0000     48.5972
            7          27      0.2000      0.1733   1404.0261    703.0000     48.9508
            7          28      0.2000      0.1800   1410.8422    703.0000     49.3310
            7          29      0.2000      0.1867   1418.0017    703.0000     49.7367
            7          30      0.2000      0.1933   1425.4659    703.0000     50.1663
            7          31      0.2000      0.2000   1433.1962    703.0000     50.6184
            8           1      0.2333      0.0000   1412.9590    703.0000     49.4503
            8           2      0.2333      0.0067   1405.1387    703.0000     49.0125
            8           3      0.2333      0.0133   1397.6853    703.0000     48.6023
            8           4      0.2333      0.0200   1390.6411    703.0000     48.2212
            8           5      0.2333      0.0267   1384.0470    703.0000     47.8702
            8           6      0.2333      0.0333   1377.9425    703.0000     47.5503
            8           7      0.2333      0.0400   1372.3652    703.0000     47.2622
            8           8      0.2333      0.0467   1367.3500    703.0000     47.0067
            8           9      0.2333      0.0533   1362.9290    703.0000     46.7842
            8          10      0.2333      0.0600   1359.1308    703.0000     46.5952
            8          11      0.2333      0.0667   1355.9804    703.0000     46.4398
            8          12      0.2333      0.0733   1353.4983    703.0000     46.3184
            8          13      0.2333      0.0800   1351.7010    703.0000     46.2310
            8          14      0.2333      0.0867   1350.6001    703.0000     46.1776
            8          15      0.2333      0.0933   1350.2025    703.0000     46.1584
            8          16      0.2333      0.1000   1350.5102    703.0000     46.1733
            8          17      0.2333      0.1067   1351.5204    703.0000     46.2222
            8          18      0.2333      0.1133   1353.2252    703.0000     46.3051
            8          19      0.2333      0.1200   1355.6122    703.0000     46.4218
            8          20      0.2333      0.1267   1358.6643    703.0000     46.5721
            8          21      0.2333      0.1333   1362.3603    703.0000     46.7558
            8          22      0.2333      0.1400   1366.6747    703.0000     46.9726
            8          23      0.2333      0.1467   1371.5785    703.0000     47.2219
            8          24      0.2333      0.1533   1377.0396    703.0000     47.5034
            8          25      0.2333      0.1600   1383.0229    703.0000     47.8162
            8          26      0.2333      0.1667   1389.4909    703.0000     48.1596
            8          27      0.2333      0.1733   1396.4045    703.0000     48.5326
            8          28      0.2333      0.1800   1403.7229    703.0000     48.9340
            8          29      0.2333      0.1867   1411.4046    703.0000     49.3627
            8          30      0.2333      0.1933   1419.4076    703.0000     49.8171
            8          31      0.2333      0.2000   1427.6899    703.0000     50.2956
            9           1      0.2667      0.0000   1407.5073    703.0000     49.1443
            9           2      0.2667      0.0067   1399.2529    703.0000     48.6880
            9           3      0.2667      0.0133   1391.3830    703.0000     48.2610
            9           4      0.2667      0.0200   1383.9424    703.0000     47.8647
            9           5      0.2667      0.0267   1376.9753    703.0000     47.5000
            9           6      0.2667      0.0333   1370.5239    703.0000     47.1680
            9           7      0.2667      0.0400   1364.6285    703.0000     46.8695
            9           8      0.2667      0.0467   1359.3268    703.0000     46.6049
            9           9      0.2667      0.0533   1354.6531    703.0000     46.3748
            9          10      0.2667      0.0600   1350.6381    703.0000     46.1795
            9          11      0.2667      0.0667   1347.3086    703.0000     46.0191
            9          12      0.2667      0.0733   1344.6867    703.0000     45.8939
            9          13      0.2667      0.0800   1342.7900    703.0000     45.8040
            9          14      0.2667      0.0867   1341.6310    703.0000     45.7492
            9          15      0.2667      0.0933   1341.2170    703.0000     45.7297
            9          16      0.2667      0.1000   1341.5500    703.0000     45.7454
            9          17      0.2667      0.1067   1342.6270    703.0000     45.7962
            9          18      0.2667      0.1133   1344.4395    703.0000     45.8822
            9          19      0.2667      0.1200   1346.9739    703.0000     46.0031
            9          20      0.2667      0.1267   1350.2120    703.0000     46.1589
            9          21      0.2667      0.1333   1354.1306    703.0000     46.3493
            9          22      0.2667      0.1400   1358.7026    703.0000     46.5740
            9          23      0.2667      0.1467   1363.8967    703.0000     46.8327
            9          24      0.2667      0.1533   1369.6781    703.0000     47.1249
            9          25      0.2667      0.1600   1376.0093    703.0000     47.4500
            9          26      0.2667      0.1667   1382.8500    703.0000     47.8071
            9          27      0.2667      0.1733   1390.1582    703.0000     48.1953
            9          28      0.2667      0.1800   1397.8903    703.0000     48.6135
            9          29      0.2667      0.1867   1406.0018    703.0000     49.0604
            9          30      0.2667      0.1933   1414.4477    703.0000     49.5345
            9          31      0.2667      0.2000   1423.1835    703.0000     50.0342
           10           1      0.3000      0.0000   1403.1432    703.0000     48.9020
           10           2      0.3000      0.0067   1394.5411    703.0000     48.4314
           10           3      0.3000      0.0133   1386.3373    703.0000     47.9915
           10           4      0.3000      0.0200   1378.5792    703.0000     47.5834
           10           5      0.3000      0.0267   1371.3132    703.0000     47.2084
           10           6      0.3000      0.0333   1364.5839    703.0000     46.8672
           10           7      0.3000      0.0400   1358.4339    703.0000     46.5607
           10           8      0.3000      0.0467   1352.9027    703.0000     46.2894
           10           9      0.3000      0.0533   1348.0268    703.0000     46.0536
           10          10      0.3000      0.0600   1343.8384    703.0000     45.8536
           10          11      0.3000      0.0667   1340.3659    703.0000     45.6897
           10          12      0.3000      0.0733   1337.6326    703.0000     45.5618
           10          13      0.3000      0.0800   1335.6569    703.0000     45.4699
           10          14      0.3000      0.0867   1334.4519    703.0000     45.4142
           10          15      0.3000      0.0933   1334.0255    703.0000     45.3945
           10          16      0.3000      0.1000   1334.3796    703.0000     45.4109
           10          17      0.3000      0.1067   1335.5109    703.0000     45.4632
           10          18      0.3000      0.1133   1337.4104    703.0000     45.5514
           10          19      0.3000      0.1200   1340.0638    703.0000     45.6755
           10          20      0.3000      0.1267   1343.4517    703.0000     45.8353
           10          21      0.3000      0.1333   1347.5496    703.0000     46.0307
           10          22      0.3000      0.1400   1352.3286    703.0000     46.2614
           10          23      0.3000      0.1467   1357.7559    703.0000     46.5272
           10          24      0.3000      0.1533   1363.7946    703.0000     46.8276
           10          25      0.3000      0.1600   1370.4051    703.0000     47.1620
           10          26      0.3000      0.1667   1377.5449    703.0000     47.5296
           10          27      0.3000      0.1733   1385.1695    703.0000     47.9295
           10          28      0.3000      0.1800   1393.2331    703.0000     48.3607
           10          29      0.3000      0.1867   1401.6889    703.0000     48.8218
           10          30      0.3000      0.1933   1410.4895    703.0000     49.3112
           10          31      0.3000      0.2000   1419.5880    703.0000     49.8274
           11           1      0.3333      0.0000   1399.7473    703.0000     48.7151
           11           2      0.3333      0.0067   1390.8745    703.0000     48.2337
           11           3      0.3333      0.0133   1382.4108    703.0000     47.7840
           11           4      0.3333      0.0200   1374.4055    703.0000     47.3671
           11           5      0.3333      0.0267   1366.9068    703.0000     46.9843
           11           6      0.3333      0.0333   1359.9613    703.0000     46.6364
           11           7      0.3333      0.0400   1353.6132    703.0000     46.3240
           11           8      0.3333      0.0467   1347.9037    703.0000     46.0477
           11           9      0.3333      0.0533   1342.8706    703.0000     45.8078
           11          10      0.3333      0.0600   1338.5476    703.0000     45.6045
           11          11      0.3333      0.0667   1334.9641    703.0000     45.4379
           11          12      0.3333      0.0733   1332.1444    703.0000     45.3080
           11          13      0.3333      0.0800   1330.1077    703.0000     45.2149
           11          14      0.3333      0.0867   1328.8675    703.0000     45.1585
           11          15      0.3333      0.0933   1328.4318    703.0000     45.1387
           11          16      0.3333      0.1000   1328.8028    703.0000     45.1556
           11          17      0.3333      0.1067   1329.9768    703.0000     45.2090
           11          18      0.3333      0.1133   1331.9445    703.0000     45.2989
           11          19      0.3333      0.1200   1334.6910    703.0000     45.4252
           11          20      0.3333      0.1267   1338.1958    703.0000     45.5880
           11          21      0.3333      0.1333   1342.4336    703.0000     45.7871
           11          22      0.3333      0.1400   1347.3742    703.0000     46.0223
           11          23      0.3333      0.1467   1352.9833    703.0000     46.2933
           11          24      0.3333      0.1533   1359.2226    703.0000     46.5997
           11          25      0.3333      0.1600   1366.0508    703.0000     46.9411
           11          26      0.3333      0.1667   1373.4235    703.0000     47.3166
           11          27      0.3333      0.1733   1381.2946    703.0000     47.7253
           11          28      0.3333      0.1800   1389.6164    703.0000     48.1663
           11          29      0.3333      0.1867   1398.3400    703.0000     48.6381
           11          30      0.3333      0.1933   1407.4166    703.0000     49.1392
           11          31      0.3333      0.2000   1416.7972    703.0000     49.6680
           12           1      0.3667      0.0000   1397.1909    703.0000     48.5754
           12           2      0.3667      0.0067   1388.1142    703.0000     48.0860
           12           3      0.3667      0.0133   1379.4548    703.0000     47.6291
           12           4      0.3667      0.0200   1371.2635    703.0000     47.2058
           12           5      0.3667      0.0267   1363.5897    703.0000     46.8173
           12           6      0.3667      0.0333   1356.4816    703.0000     46.4645
           12           7      0.3667      0.0400   1349.9845    703.0000     46.1479
           12           8      0.3667      0.0467   1344.1409    703.0000     45.8680
           12           9      0.3667      0.0533   1338.9897    703.0000     45.6251
           12          10      0.3667      0.0600   1334.5657    703.0000     45.4195
           12          11      0.3667      0.0667   1330.8989    703.0000     45.2510
           12          12      0.3667      0.0733   1328.0145    703.0000     45.1198
           12          13      0.3667      0.0800   1325.9320    703.0000     45.0258
           12          14      0.3667      0.0867   1324.6656    703.0000     44.9690
           12          15      0.3667      0.0933   1324.2232    703.0000     44.9491
           12          16      0.3667      0.1000   1324.6071    703.0000     44.9663
           12          17      0.3667      0.1067   1325.8136    703.0000     45.0205
           12          18      0.3667      0.1133   1327.8329    703.0000     45.1116
           12          19      0.3667      0.1200   1330.6495    703.0000     45.2396
           12          20      0.3667      0.1267   1334.2426    703.0000     45.4045
           12          21      0.3667      0.1333   1338.5858    703.0000     45.6062
           12          22      0.3667      0.1400   1343.6482    703.0000     45.8446
           12          23      0.3667      0.1467   1349.3943    703.0000     46.1194
           12          24      0.3667      0.1533   1355.7847    703.0000     46.4302
           12          25      0.3667      0.1600   1362.7768    703.0000     46.7766
           12          26      0.3667      0.1667   1370.3250    703.0000     47.1579
           12          27      0.3667      0.1733   1378.3817    703.0000     47.5731
           12          28      0.3667      0.1800   1386.8978    703.0000     48.0212
           12          29      0.3667      0.1867   1395.8231    703.0000     48.5010
           12          30      0.3667      0.1933   1405.1074    703.0000     49.0107
           12          31      0.3667      0.2000   1414.7004    703.0000     49.5489
           13           1      0.4000      0.0000   1395.3502    703.0000     48.4753
           13           2      0.4000      0.0067   1386.1268    703.0000     47.9803
           13           3      0.4000      0.0133   1377.3265    703.0000     47.5182
           13           4      0.4000      0.0200   1369.0013    703.0000     47.0905
           13           5      0.4000      0.0267   1361.2016    703.0000     46.6980
           13           6      0.4000      0.0333   1353.9764    703.0000     46.3417
           13           7      0.4000      0.0400   1347.3721    703.0000     46.0222
           13           8      0.4000      0.0467   1341.4321    703.0000     45.7398
           13           9      0.4000      0.0533   1336.1961    703.0000     45.4949
           13          10      0.4000      0.0600   1331.6995    703.0000     45.2876
           13          11      0.4000      0.0667   1327.9730    703.0000     45.1180
           13          12      0.4000      0.0733   1325.0422    703.0000     44.9858
           13          13      0.4000      0.0800   1322.9270    703.0000     44.8912
           13          14      0.4000      0.0867   1321.6418    703.0000     44.8341
           13          15      0.4000      0.0933   1321.1948    703.0000     44.8142
           13          16      0.4000      0.1000   1321.5882    703.0000     44.8317
           13          17      0.4000      0.1067   1322.8181    703.0000     44.8864
           13          18      0.4000      0.1133   1324.8745    703.0000     44.9783
           13          19      0.4000      0.1200   1327.7418    703.0000     45.1075
           13          20      0.4000      0.1267   1331.3984    703.0000     45.2739
           13          21      0.4000      0.1333   1335.8176    703.0000     45.4774
           13          22      0.4000      0.1400   1340.9677    703.0000     45.7180
           13          23      0.4000      0.1467   1346.8124    703.0000     45.9954
           13          24      0.4000      0.1533   1353.3116    703.0000     46.3093
           13          25      0.4000      0.1600   1360.4217    703.0000     46.6592
           13          26      0.4000      0.1667   1368.0962    703.0000     47.0445
           13          27      0.4000      0.1733   1376.2865    703.0000     47.4643
           13          28      0.4000      0.1800   1384.9425    703.0000     47.9175
           13          29      0.4000      0.1867   1394.0131    703.0000     48.4028
           13          30      0.4000      0.1933   1403.4468    703.0000     48.9188
           13          31      0.4000      0.2000   1413.1926    703.0000     49.4635
           14           1      0.4333      0.0000   1394.1183    703.0000     48.4085
           14           2      0.4333      0.0067   1384.7967    703.0000     47.9098
           14           3      0.4333      0.0133   1375.9021    703.0000     47.4444
           14           4      0.4333      0.0200   1367.4872    703.0000     47.0137
           14           5      0.4333      0.0267   1359.6033    703.0000     46.6186
           14           6      0.4333      0.0333   1352.2999    703.0000     46.2600
           14           7      0.4333      0.0400   1345.6240    703.0000     45.9386
           14           8      0.4333      0.0467   1339.6196    703.0000     45.6546
           14           9      0.4333      0.0533   1334.3269    703.0000     45.4084
           14          10      0.4333      0.0600   1329.7818    703.0000     45.2001
           14          11      0.4333      0.0667   1326.0154    703.0000     45.0296
           14          12      0.4333      0.0733   1323.0536    703.0000     44.8969
           14          13      0.4333      0.0800   1320.9167    703.0000     44.8019
           14          14      0.4333      0.0867   1319.6190    703.0000     44.7445
           14          15      0.4333      0.0933   1319.1690    703.0000     44.7247
           14          16      0.4333      0.1000   1319.5687    703.0000     44.7423
           14          17      0.4333      0.1067   1320.8143    703.0000     44.7974
           14          18      0.4333      0.1133   1322.8957    703.0000     44.8898
           14          19      0.4333      0.1200   1325.7969    703.0000     45.0197
           14          20      0.4333      0.1267   1329.4961    703.0000     45.1871
           14          21      0.4333      0.1333   1333.9661    703.0000     45.3918
           14          22      0.4333      0.1400   1339.1748    703.0000     45.6338
           14          23      0.4333      0.1467   1345.0855    703.0000     45.9129
           14          24      0.4333      0.1533   1351.6575    703.0000     46.2288
           14          25      0.4333      0.1600   1358.8465    703.0000     46.5811
           14          26      0.4333      0.1667   1366.6055    703.0000     46.9691
           14          27      0.4333      0.1733   1374.8852    703.0000     47.3919
           14          28      0.4333      0.1800   1383.6348    703.0000     47.8484
           14          29      0.4333      0.1867   1392.8025    703.0000     48.3375
           14          30      0.4333      0.1933   1402.3363    703.0000     48.8574
           14          31      0.4333      0.2000   1412.1844    703.0000     49.4066
           15           1      0.4667      0.0000   1393.4133    703.0000     48.3704
           15           2      0.4667      0.0067   1384.0353    703.0000     47.8696
           15           3      0.4667      0.0133   1375.0869    703.0000     47.4023
           15           4      0.4667      0.0200   1366.6207    703.0000     46.9698
           15           5      0.4667      0.0267   1358.6886    703.0000     46.5733
           15           6      0.4667      0.0333   1351.3404    703.0000     46.2135
           15           7      0.4667      0.0400   1344.6235    703.0000     45.8909
           15           8      0.4667      0.0467   1338.5823    703.0000     45.6061
           15           9      0.4667      0.0533   1333.2573    703.0000     45.3591
           15          10      0.4667      0.0600   1328.6845    703.0000     45.1502
           15          11      0.4667      0.0667   1324.8953    703.0000     44.9793
           15          12      0.4667      0.0733   1321.9159    703.0000     44.8462
           15          13      0.4667      0.0800   1319.7665    703.0000     44.7510
           15          14      0.4667      0.0867   1318.4617    703.0000     44.6936
           15          15      0.4667      0.0933   1318.0099    703.0000     44.6737
           15          16      0.4667      0.1000   1318.4134    703.0000     44.6915
           15          17      0.4667      0.1067   1319.6680    703.0000     44.7467
           15          18      0.4667      0.1133   1321.7637    703.0000     44.8395
           15          19      0.4667      0.1200   1324.6842    703.0000     44.9698
           15          20      0.4667      0.1267   1328.4077    703.0000     45.1376
           15          21      0.4667      0.1333   1332.9068    703.0000     45.3430
           15          22      0.4667      0.1400   1338.1491    703.0000     45.5858
           15          23      0.4667      0.1467   1344.0976    703.0000     45.8659
           15          24      0.4667      0.1533   1350.7112    703.0000     46.1830
           15          25      0.4667      0.1600   1357.9453    703.0000     46.5366
           15          26      0.4667      0.1667   1365.7527    703.0000     46.9260
           15          27      0.4667      0.1733   1374.0835    703.0000     47.3505
           15          28      0.4667      0.1800   1382.8867    703.0000     47.8090
           15          29      0.4667      0.1867   1392.1100    703.0000     48.3001
           15          30      0.4667      0.1933   1401.7011    703.0000     48.8224
           15          31      0.4667      0.2000   1411.6077    703.0000     49.3741
           16           1      0.5000      0.0000   1393.1839    703.0000     48.3580
           16           2      0.5000      0.0067   1383.7877    703.0000     47.8565
           16           3      0.5000      0.0133   1374.8216    703.0000     47.3886
           16           4      0.5000      0.0200   1366.3388    703.0000     46.9556
           16           5      0.5000      0.0267   1358.3910    703.0000     46.5586
           16           6      0.5000      0.0333   1351.0283    703.0000     46.1983
           16           7      0.5000      0.0400   1344.2981    703.0000     45.8755
           16           8      0.5000      0.0467   1338.2449    703.0000     45.5903
           16           9      0.5000      0.0533   1332.9093    703.0000     45.3431
           16          10      0.5000      0.0600   1328.3275    703.0000     45.1340
           16          11      0.5000      0.0667   1324.5310    703.0000     44.9629
           16          12      0.5000      0.0733   1321.5458    703.0000     44.8298
           16          13      0.5000      0.0800   1319.3924    703.0000     44.7345
           16          14      0.5000      0.0867   1318.0853    703.0000     44.6770
           16          15      0.5000      0.0933   1317.6330    703.0000     44.6572
           16          16      0.5000      0.1000   1318.0376    703.0000     44.6749
           16          17      0.5000      0.1067   1319.2952    703.0000     44.7303
           16          18      0.5000      0.1133   1321.3955    703.0000     44.8231
           16          19      0.5000      0.1200   1324.3224    703.0000     44.9536
           16          20      0.5000      0.1267   1328.0538    703.0000     45.1216
           16          21      0.5000      0.1333   1332.5623    703.0000     45.3272
           16          22      0.5000      0.1400   1337.8155    703.0000     45.5703
           16          23      0.5000      0.1467   1343.7763    703.0000     45.8507
           16          24      0.5000      0.1533   1350.4034    703.0000     46.1681
           16          25      0.5000      0.1600   1357.6523    703.0000     46.5221
           16          26      0.5000      0.1667   1365.4753    703.0000     46.9121
           16          27      0.5000      0.1733   1373.8228    703.0000     47.3371
           16          28      0.5000      0.1800   1382.6434    703.0000     47.7962
           16          29      0.5000      0.1867   1391.8848    703.0000     48.2880
           16          30      0.5000      0.1933   1401.4945    703.0000     48.8111
           16          31      0.5000      0.2000   1411.4201    703.0000     49.3636
           17           1      0.5333      0.0000   1393.4128    703.0000     48.3704
           17           2      0.5333      0.0067   1384.0349    703.0000     47.8695
           17           3      0.5333      0.0133   1375.0864    703.0000     47.4022
           17           4      0.5333      0.0200   1366.6202    703.0000     46.9698
           17           5      0.5333      0.0267   1358.6880    703.0000     46.5733
           17           6      0.5333      0.0333   1351.3398    703.0000     46.2134
           17           7      0.5333      0.0400   1344.6229    703.0000     45.8909
           17           8      0.5333      0.0467   1338.5817    703.0000     45.6061
           17           9      0.5333      0.0533   1333.2566    703.0000     45.3591
           17          10      0.5333      0.0600   1328.6838    703.0000     45.1502
           17          11      0.5333      0.0667   1324.8946    703.0000     44.9792
           17          12      0.5333      0.0733   1321.9152    703.0000     44.8462
           17          13      0.5333      0.0800   1319.7658    703.0000     44.7510
           17          14      0.5333      0.0867   1318.4610    703.0000     44.6935
           17          15      0.5333      0.0933   1318.0092    703.0000     44.6737
           17          16      0.5333      0.1000   1318.4127    703.0000     44.6914
           17          17      0.5333      0.1067   1319.6673    703.0000     44.7467
           17          18      0.5333      0.1133   1321.7630    703.0000     44.8394
           17          19      0.5333      0.1200   1324.6836    703.0000     44.9698
           17          20      0.5333      0.1267   1328.4071    703.0000     45.1376
           17          21      0.5333      0.1333   1332.9062    703.0000     45.3430
           17          22      0.5333      0.1400   1338.1485    703.0000     45.5858
           17          23      0.5333      0.1467   1344.0970    703.0000     45.8659
           17          24      0.5333      0.1533   1350.7106    703.0000     46.1830
           17          25      0.5333      0.1600   1357.9448    703.0000     46.5365
           17          26      0.5333      0.1667   1365.7522    703.0000     46.9260
           17          27      0.5333      0.1733   1374.0831    703.0000     47.3505
           17          28      0.5333      0.1800   1382.8863    703.0000     47.8090
           17          29      0.5333      0.1867   1392.1096    703.0000     48.3001
           17          30      0.5333      0.1933   1401.7007    703.0000     48.8224
           17          31      0.5333      0.2000   1411.6073    703.0000     49.3741
           18           1      0.5667      0.0000   1394.1174    703.0000     48.4085
           18           2      0.5667      0.0067   1384.7957    703.0000     47.9097
           18           3      0.5667      0.0133   1375.9011    703.0000     47.4444
           18           4      0.5667      0.0200   1367.4861    703.0000     47.0136
           18           5      0.5667      0.0267   1359.6021    703.0000     46.6185
           18           6      0.5667      0.0333   1352.2986    703.0000     46.2600
           18           7      0.5667      0.0400   1345.6227    703.0000     45.9385
           18           8      0.5667      0.0467   1339.6183    703.0000     45.6546
           18           9      0.5667      0.0533   1334.3255    703.0000     45.4084
           18          10      0.5667      0.0600   1329.7804    703.0000     45.2000
           18          11      0.5667      0.0667   1326.0140    703.0000     45.0295
           18          12      0.5667      0.0733   1323.0522    703.0000     44.8968
           18          13      0.5667      0.0800   1320.9152    703.0000     44.8018
           18          14      0.5667      0.0867   1319.6176    703.0000     44.7445
           18          15      0.5667      0.0933   1319.1675    703.0000     44.7246
           18          16      0.5667      0.1000   1319.5673    703.0000     44.7423
           18          17      0.5667      0.1067   1320.8129    703.0000     44.7973
           18          18      0.5667      0.1133   1322.8943    703.0000     44.8898
           18          19      0.5667      0.1200   1325.7955    703.0000     45.0197
           18          20      0.5667      0.1267   1329.4947    703.0000     45.1870
           18          21      0.5667      0.1333   1333.9647    703.0000     45.3917
           18          22      0.5667      0.1400   1339.1735    703.0000     45.6337
           18          23      0.5667      0.1467   1345.0843    703.0000     45.9129
           18          24      0.5667      0.1533   1351.6563    703.0000     46.2288
           18          25      0.5667      0.1600   1358.8454    703.0000     46.5811
           18          26      0.5667      0.1667   1366.6044    703.0000     46.9690
           18          27      0.5667      0.1733   1374.8842    703.0000     47.3918
           18          28      0.5667      0.1800   1383.6339    703.0000     47.8484
           18          29      0.5667      0.1867   1392.8017    703.0000     48.3374
           18          30      0.5667      0.1933   1402.3355    703.0000     48.8574
           18          31      0.5667      0.2000   1412.1837    703.0000     49.4066
           19           1      0.6000      0.0000   1395.3488    703.0000     48.4752
           19           2      0.6000      0.0067   1386.1253    703.0000     47.9802
           19           3      0.6000      0.0133   1377.3249    703.0000     47.5182
           19           4      0.6000      0.0200   1368.9995    703.0000     47.0904
           19           5      0.6000      0.0267   1361.1997    703.0000     46.6979
           19           6      0.6000      0.0333   1353.9745    703.0000     46.3416
           19           7      0.6000      0.0400   1347.3701    703.0000     46.0221
           19           8      0.6000      0.0467   1341.4301    703.0000     45.7397
           19           9      0.6000      0.0533   1336.1940    703.0000     45.4948
           19          10      0.6000      0.0600   1331.6973    703.0000     45.2875
           19          11      0.6000      0.0667   1327.9708    703.0000     45.1178
           19          12      0.6000      0.0733   1325.0399    703.0000     44.9857
           19          13      0.6000      0.0800   1322.9247    703.0000     44.8911
           19          14      0.6000      0.0867   1321.6395    703.0000     44.8340
           19          15      0.6000      0.0933   1321.1924    703.0000     44.8141
           19          16      0.6000      0.1000   1321.5858    703.0000     44.8316
           19          17      0.6000      0.1067   1322.8157    703.0000     44.8863
           19          18      0.6000      0.1133   1324.8723    703.0000     44.9782
           19          19      0.6000      0.1200   1327.7396    703.0000     45.1074
           19          20      0.6000      0.1267   1331.3962    703.0000     45.2738
           19          21      0.6000      0.1333   1335.8155    703.0000     45.4773
           19          22      0.6000      0.1400   1340.9656    703.0000     45.7179
           19          23      0.6000      0.1467   1346.8104    703.0000     45.9953
           19          24      0.6000      0.1533   1353.3097    703.0000     46.3092
           19          25      0.6000      0.1600   1360.4198    703.0000     46.6591
           19          26      0.6000      0.1667   1368.0944    703.0000     47.0444
           19          27      0.6000      0.1733   1376.2849    703.0000     47.4642
           19          28      0.6000      0.1800   1384.9410    703.0000     47.9174
           19          29      0.6000      0.1867   1394.0117    703.0000     48.4028
           19          30      0.6000      0.1933   1403.4455    703.0000     48.9187
           19          31      0.6000      0.2000   1413.1915    703.0000     49.4634
           20           1      0.6333      0.0000   1397.1888    703.0000     48.5753
           20           2      0.6333      0.0067   1388.1120    703.0000     48.0859
           20           3      0.6333      0.0133   1379.4524    703.0000     47.6289
           20           4      0.6333      0.0200   1371.2609    703.0000     47.2057
           20           5      0.6333      0.0267   1363.5871    703.0000     46.8172
           20           6      0.6333      0.0333   1356.4788    703.0000     46.4643
           20           7      0.6333      0.0400   1349.9815    703.0000     46.1477
           20           8      0.6333      0.0467   1344.1378    703.0000     45.8678
           20           9      0.6333      0.0533   1338.9866    703.0000     45.6250
           20          10      0.6333      0.0600   1334.5625    703.0000     45.4193
           20          11      0.6333      0.0667   1330.8956    703.0000     45.2509
           20          12      0.6333      0.0733   1328.0112    703.0000     45.1197
           20          13      0.6333      0.0800   1325.9287    703.0000     45.0257
           20          14      0.6333      0.0867   1324.6622    703.0000     44.9688
           20          15      0.6333      0.0933   1324.2198    703.0000     44.9490
           20          16      0.6333      0.1000   1324.6038    703.0000     44.9662
           20          17      0.6333      0.1067   1325.8102    703.0000     45.0203
           20          18      0.6333      0.1133   1327.8295    703.0000     45.1115
           20          19      0.6333      0.1200   1330.6463    703.0000     45.2395
           20          20      0.6333      0.1267   1334.2394    703.0000     45.4044
           20          21      0.6333      0.1333   1338.5827    703.0000     45.6061
           20          22      0.6333      0.1400   1343.6452    703.0000     45.8445
           20          23      0.6333      0.1467   1349.3914    703.0000     46.1193
           20          24      0.6333      0.1533   1355.7819    703.0000     46.4301
           20          25      0.6333      0.1600   1362.7741    703.0000     46.7765
           20          26      0.6333      0.1667   1370.3225    703.0000     47.1578
           20          27      0.6333      0.1733   1378.3793    703.0000     47.5730
           20          28      0.6333      0.1800   1386.8956    703.0000     48.0211
           20          29      0.6333      0.1867   1395.8211    703.0000     48.5008
           20          30      0.6333      0.1933   1405.1055    703.0000     49.0106
           20          31      0.6333      0.2000   1414.6987    703.0000     49.5488
           21           1      0.6667      0.0000   1399.7444    703.0000     48.7149
           21           2      0.6667      0.0067   1390.8714    703.0000     48.2335
           21           3      0.6667      0.0133   1382.4075    703.0000     47.7838
           21           4      0.6667      0.0200   1374.4020    703.0000     47.3669
           21           5      0.6667      0.0267   1366.9031    703.0000     46.9841
           21           6      0.6667      0.0333   1359.9574    703.0000     46.6362
           21           7      0.6667      0.0400   1353.6091    703.0000     46.3238
           21           8      0.6667      0.0467   1347.8995    703.0000     46.0475
           21           9      0.6667      0.0533   1342.8662    703.0000     45.8076
           21          10      0.6667      0.0600   1338.5432    703.0000     45.6043
           21          11      0.6667      0.0667   1334.9596    703.0000     45.4377
           21          12      0.6667      0.0733   1332.1398    703.0000     45.3078
           21          13      0.6667      0.0800   1330.1030    703.0000     45.2147
           21          14      0.6667      0.0867   1328.8628    703.0000     45.1583
           21          15      0.6667      0.0933   1328.4271    703.0000     45.1385
           21          16      0.6667      0.1000   1328.7981    703.0000     45.1554
           21          17      0.6667      0.1067   1329.9722    703.0000     45.2087
           21          18      0.6667      0.1133   1331.9400    703.0000     45.2987
           21          19      0.6667      0.1200   1334.6865    703.0000     45.4250
           21          20      0.6667      0.1267   1338.1914    703.0000     45.5878
           21          21      0.6667      0.1333   1342.4293    703.0000     45.7869
           21          22      0.6667      0.1400   1347.3701    703.0000     46.0221
           21          23      0.6667      0.1467   1352.9793    703.0000     46.2931
           21          24      0.6667      0.1533   1359.2188    703.0000     46.5995
           21          25      0.6667      0.1600   1366.0471    703.0000     46.9409
           21          26      0.6667      0.1667   1373.4200    703.0000     47.3164
           21          27      0.6667      0.1733   1381.2914    703.0000     47.7252
           21          28      0.6667      0.1800   1389.6133    703.0000     48.1661
           21          29      0.6667      0.1867   1398.3372    703.0000     48.6379
           21          30      0.6667      0.1933   1407.4140    703.0000     49.1391
           21          31      0.6667      0.2000   1416.7949    703.0000     49.6679
           22           1      0.7000      0.0000   1403.1394    703.0000     48.9018
           22           2      0.7000      0.0067   1394.5370    703.0000     48.4312
           22           3      0.7000      0.0133   1386.3329    703.0000     47.9912
           22           4      0.7000      0.0200   1378.5745    703.0000     47.5832
           22           5      0.7000      0.0267   1371.3082    703.0000     47.2081
           22           6      0.7000      0.0333   1364.5787    703.0000     46.8670
           22           7      0.7000      0.0400   1358.4285    703.0000     46.5604
           22           8      0.7000      0.0467   1352.8971    703.0000     46.2891
           22           9      0.7000      0.0533   1348.0210    703.0000     46.0533
           22          10      0.7000      0.0600   1343.8325    703.0000     45.8534
           22          11      0.7000      0.0667   1340.3598    703.0000     45.6894
           22          12      0.7000      0.0733   1337.6264    703.0000     45.5615
           22          13      0.7000      0.0800   1335.6507    703.0000     45.4697
           22          14      0.7000      0.0867   1334.4457    703.0000     45.4139
           22          15      0.7000      0.0933   1334.0192    703.0000     45.3942
           22          16      0.7000      0.1000   1334.3734    703.0000     45.4106
           22          17      0.7000      0.1067   1335.5047    703.0000     45.4629
           22          18      0.7000      0.1133   1337.4043    703.0000     45.5511
           22          19      0.7000      0.1200   1340.0578    703.0000     45.6752
           22          20      0.7000      0.1267   1343.4458    703.0000     45.8350
           22          21      0.7000      0.1333   1347.5438    703.0000     46.0304
           22          22      0.7000      0.1400   1352.3231    703.0000     46.2612
           22          23      0.7000      0.1467   1357.7505    703.0000     46.5270
           22          24      0.7000      0.1533   1363.7895    703.0000     46.8273
           22          25      0.7000      0.1600   1370.4002    703.0000     47.1617
           22          26      0.7000      0.1667   1377.5403    703.0000     47.5293
           22          27      0.7000      0.1733   1385.1652    703.0000     47.9293
           22          28      0.7000      0.1800   1393.2291    703.0000     48.3605
           22          29      0.7000      0.1867   1401.6851    703.0000     48.8216
           22          30      0.7000      0.1933   1410.4860    703.0000     49.3110
           22          31      0.7000      0.2000   1419.5848    703.0000     49.8272
           23           1      0.7333      0.0000   1407.5024    703.0000     49.1440
           23           2      0.7333      0.0067   1399.2476    703.0000     48.6877
           23           3      0.7333      0.0133   1391.3772    703.0000     48.2607
           23           4      0.7333      0.0200   1383.9363    703.0000     47.8643
           23           5      0.7333      0.0267   1376.9688    703.0000     47.4997
           23           6      0.7333      0.0333   1370.5172    703.0000     47.1677
           23           7      0.7333      0.0400   1364.6215    703.0000     46.8691
           23           8      0.7333      0.0467   1359.3195    703.0000     46.6045
           23           9      0.7333      0.0533   1354.6456    703.0000     46.3744
           23          10      0.7333      0.0600   1350.6304    703.0000     46.1791
           23          11      0.7333      0.0667   1347.3007    703.0000     46.0188
           23          12      0.7333      0.0733   1344.6787    703.0000     45.8936
           23          13      0.7333      0.0800   1342.7819    703.0000     45.8036
           23          14      0.7333      0.0867   1341.6229    703.0000     45.7488
           23          15      0.7333      0.0933   1341.2088    703.0000     45.7293
           23          16      0.7333      0.1000   1341.5419    703.0000     45.7450
           23          17      0.7333      0.1067   1342.6189    703.0000     45.7959
           23          18      0.7333      0.1133   1344.4315    703.0000     45.8818
           23          19      0.7333      0.1200   1346.9661    703.0000     46.0027
           23          20      0.7333      0.1267   1350.2043    703.0000     46.1585
           23          21      0.7333      0.1333   1354.1232    703.0000     46.3489
           23          22      0.7333      0.1400   1358.6954    703.0000     46.5736
           23          23      0.7333      0.1467   1363.8897    703.0000     46.8324
           23          24      0.7333      0.1533   1369.6714    703.0000     47.1246
           23          25      0.7333      0.1600   1376.0029    703.0000     47.4496
           23          26      0.7333      0.1667   1382.8440    703.0000     47.8067
           23          27      0.7333      0.1733   1390.1526    703.0000     48.1950
           23          28      0.7333      0.1800   1397.8850    703.0000     48.6132
           23          29      0.7333      0.1867   1405.9968    703.0000     49.0601
           23          30      0.7333      0.1933   1414.4432    703.0000     49.5343
           23          31      0.7333      0.2000   1423.1794    703.0000     50.0340
           24           1      0.7667      0.0000   1412.9527    703.0000     49.4500
           24           2      0.7667      0.0067   1405.1319    703.0000     49.0121
           24           3      0.7667      0.0133   1397.6780    703.0000     48.6019
           24           4      0.7667      0.0200   1390.6334    703.0000     48.2208
           24           5      0.7667      0.0267   1384.0388    703.0000     47.8697
           24           6      0.7667      0.0333   1377.9340    703.0000     47.5498
           24           7      0.7667      0.0400   1372.3563    703.0000     47.2618
           24           8      0.7667      0.0467   1367.3407    703.0000     47.0062
           24           9      0.7667      0.0533   1362.9194    703.0000     46.7838
           24          10      0.7667      0.0600   1359.1210    703.0000     46.5947
           24          11      0.7667      0.0667   1355.9703    703.0000     46.4393
           24          12      0.7667      0.0733   1353.4881    703.0000     46.3179
           24          13      0.7667      0.0800   1351.6907    703.0000     46.2305
           24          14      0.7667      0.0867   1350.5897    703.0000     46.1771
           24          15      0.7667      0.0933   1350.1921    703.0000     46.1579
           24          16      0.7667      0.1000   1350.4999    703.0000     46.1728
           24          17      0.7667      0.1067   1351.5101    703.0000     46.2217
           24          18      0.7667      0.1133   1353.2150    703.0000     46.3046
           24          19      0.7667      0.1200   1355.6022    703.0000     46.4213
           24          20      0.7667      0.1267   1358.6545    703.0000     46.5716
           24          21      0.7667      0.1333   1362.3507    703.0000     46.7553
           24          22      0.7667      0.1400   1366.6654    703.0000     46.9721
           24          23      0.7667      0.1467   1371.5696    703.0000     47.2215
           24          24      0.7667      0.1533   1377.0311    703.0000     47.5029
           24          25      0.7667      0.1600   1383.0148    703.0000     47.8157
           24          26      0.7667      0.1667   1389.4832    703.0000     48.1591
           24          27      0.7667      0.1733   1396.3972    703.0000     48.5322
           24          28      0.7667      0.1800   1403.7161    703.0000     48.9336
           24          29      0.7667      0.1867   1411.3983    703.0000     49.3623
           24          30      0.7667      0.1933   1419.4019    703.0000     49.8168
           24          31      0.7667      0.2000   1427.6847    703.0000     50.2953
           25           1      0.8000      0.0000   1419.5852    703.0000     49.8273
           25           2      0.8000      0.0067   1412.2916    703.0000     49.4127
           25           3      0.8000      0.0133   1405.3439    703.0000     49.0239
           25           4      0.8000      0.0200   1398.7805    703.0000     48.6621
           25           5      0.8000      0.0267   1392.6389    703.0000     48.3286
           25           6      0.8000      0.0333   1386.9553    703.0000     48.0243
           25           7      0.8000      0.0400   1381.7639    703.0000     47.7500
           25           8      0.8000      0.0467   1377.0965    703.0000     47.5063
           25           9      0.8000      0.0533   1372.9824    703.0000     47.2939
           25          10      0.8000      0.0600   1369.4477    703.0000     47.1132
           25          11      0.8000      0.0667   1366.5150    703.0000     46.9645
           25          12      0.8000      0.0733   1364.2034    703.0000     46.8481
           25          13      0.8000      0.0800   1362.5276    703.0000     46.7642
           25          14      0.8000      0.0867   1361.4983    703.0000     46.7128
           25          15      0.8000      0.0933   1361.1219    703.0000     46.6941
           25          16      0.8000      0.1000   1361.4003    703.0000     46.7079
           25          17      0.8000      0.1067   1362.3309    703.0000     46.7543
           25          18      0.8000      0.1133   1363.9067    703.0000     46.8332
           25          19      0.8000      0.1200   1366.1165    703.0000     46.9444
           25          20      0.8000      0.1267   1368.9447    703.0000     47.0876
           25          21      0.8000      0.1333   1372.3721    703.0000     47.2626
           25          22      0.8000      0.1400   1376.3756    703.0000     47.4689
           25          23      0.8000      0.1467   1380.9289    703.0000     47.7062
           25          24      0.8000      0.1533   1386.0027    703.0000     47.9737
           25          25      0.8000      0.1600   1391.5650    703.0000     48.2708
           25          26      0.8000      0.1667   1397.5817    703.0000     48.5967
           25          27      0.8000      0.1733   1404.0170    703.0000     48.9503
           25          28      0.8000      0.1800   1410.8338    703.0000     49.3306
           25          29      0.8000      0.1867   1417.9938    703.0000     49.7362
           25          30      0.8000      0.1933   1425.4587    703.0000     50.1659
           25          31      0.8000      0.2000   1433.1897    703.0000     50.6180
           26           1      0.8333      0.0000   1427.4534    703.0000     50.2819
           26           2      0.8333      0.0067   1420.7842    703.0000     49.8960
           26           3      0.8333      0.0133   1414.4354    703.0000     49.5338
           26           4      0.8333      0.0200   1408.4413    703.0000     49.1964
           26           5      0.8333      0.0267   1402.8355    703.0000     48.8850
           26           6      0.8333      0.0333   1397.6499    703.0000     48.6004
           26           7      0.8333      0.0400   1392.9151    703.0000     48.3435
           26           8      0.8333      0.0467   1388.6594    703.0000     48.1151
           26           9      0.8333      0.0533   1384.9087    703.0000     47.9157
           26          10      0.8333      0.0600   1381.6863    703.0000     47.7459
           26          11      0.8333      0.0667   1379.0121    703.0000     47.6060
           26          12      0.8333      0.0733   1376.9030    703.0000     47.4963
           26          13      0.8333      0.0800   1375.3721    703.0000     47.4170
           26          14      0.8333      0.0867   1374.4291    703.0000     47.3683
           26          15      0.8333      0.0933   1374.0796    703.0000     47.3503
           26          16      0.8333      0.1000   1374.3252    703.0000     47.3630
           26          17      0.8333      0.1067   1375.1637    703.0000     47.4062
           26          18      0.8333      0.1133   1376.5892    703.0000     47.4800
           26          19      0.8333      0.1200   1378.5916    703.0000     47.5840
           26          20      0.8333      0.1267   1381.1573    703.0000     47.7181
           26          21      0.8333      0.1333   1384.2694    703.0000     47.8819
           26          22      0.8333      0.1400   1387.9074    703.0000     48.0750
           26          23      0.8333      0.1467   1392.0480    703.0000     48.2968
           26          24      0.8333      0.1533   1396.6653    703.0000     48.5467
           26          25      0.8333      0.1600   1401.7310    703.0000     48.8241
           26          26      0.8333      0.1667   1407.2147    703.0000     49.1280
           26          27      0.8333      0.1733   1413.0847    703.0000     49.4574
           26          28      0.8333      0.1800   1419.3076    703.0000     49.8114
           26          29      0.8333      0.1867   1425.8496    703.0000     50.1886
           26          30      0.8333      0.1933   1432.6760    703.0000     50.5878
           26          31      0.8333      0.2000   1439.7521    703.0000     51.0075
           27           1      0.8667      0.0000   1436.5545    703.0000     50.8171
           27           2      0.8667      0.0067   1430.6058    703.0000     50.4661
           27           3      0.8667      0.0133   1424.9474    703.0000     50.1363
           27           4      0.8667      0.0200   1419.6091    703.0000     49.8286
           27           5      0.8667      0.0267   1414.6199    703.0000     49.5443
           27           6      0.8667      0.0333   1410.0074    703.0000     49.2842
           27           7      0.8667      0.0400   1405.7980    703.0000     49.0491
           27           8      0.8667      0.0467   1402.0159    703.0000     48.8398
           27           9      0.8667      0.0533   1398.6834    703.0000     48.6568
           27          10      0.8667      0.0600   1395.8205    703.0000     48.5008
           27          11      0.8667      0.0667   1393.4442    703.0000     48.3721
           27          12      0.8667      0.0733   1391.5691    703.0000     48.2710
           27          13      0.8667      0.0800   1390.2064    703.0000     48.1979
           27          14      0.8667      0.0867   1389.3643    703.0000     48.1528
           27          15      0.8667      0.0933   1389.0476    703.0000     48.1359
           27          16      0.8667      0.1000   1389.2580    703.0000     48.1471
           27          17      0.8667      0.1067   1389.9936    703.0000     48.1865
           27          18      0.8667      0.1133   1391.2492    703.0000     48.2538
           27          19      0.8667      0.1200   1393.0163    703.0000     48.3490
           27          20      0.8667      0.1267   1395.2835    703.0000     48.4717
           27          21      0.8667      0.1333   1398.0361    703.0000     48.6215
           27          22      0.8667      0.1400   1401.2568    703.0000     48.7980
           27          23      0.8667      0.1467   1404.9257    703.0000     49.0007
           27          24      0.8667      0.1533   1409.0205    703.0000     49.2288
           27          25      0.8667      0.1600   1413.5169    703.0000     49.4818
           27          26      0.8667      0.1667   1418.3888    703.0000     49.7588
           27          27      0.8667      0.1733   1423.6089    703.0000     50.0588
           27          28      0.8667      0.1800   1429.1483    703.0000     50.3808
           27          29      0.8667      0.1867   1434.9776    703.0000     50.7236
           27          30      0.8667      0.1933   1441.0667    703.0000     51.0861
           27          31      0.8667      0.2000   1447.3853    703.0000     51.4668
           28           1      0.9000      0.0000   1446.8170    703.0000     51.4324
           28           2      0.9000      0.0067   1441.6778    703.0000     51.1227
           28           3      0.9000      0.0133   1436.7943    703.0000     50.8313
           28           4      0.9000      0.0200   1432.1912    703.0000     50.5592
           28           5      0.9000      0.0267   1427.8927    703.0000     50.3075
           28           6      0.9000      0.0333   1423.9217    703.0000     50.0769
           28           7      0.9000      0.0400   1420.2999    703.0000     49.8682
           28           8      0.9000      0.0467   1417.0474    703.0000     49.6823
           28           9      0.9000      0.0533   1414.1827    703.0000     49.5195
           28          10      0.9000      0.0600   1411.7219    703.0000     49.3805
           28          11      0.9000      0.0667   1409.6793    703.0000     49.2658
           28          12      0.9000      0.0733   1408.0667    703.0000     49.1755
           28          13      0.9000      0.0800   1406.8933    703.0000     49.1100
           28          14      0.9000      0.0867   1406.1660    703.0000     49.0696
           28          15      0.9000      0.0933   1405.8887    703.0000     49.0541
           28          16      0.9000      0.1000   1406.0627    703.0000     49.0638
           28          17      0.9000      0.1067   1406.6866    703.0000     49.0985
           28          18      0.9000      0.1133   1407.7561    703.0000     49.1582
           28          19      0.9000      0.1200   1409.2643    703.0000     49.2425
           28          20      0.9000      0.1267   1411.2019    703.0000     49.3513
           28          21      0.9000      0.1333   1413.5569    703.0000     49.4841
           28          22      0.9000      0.1400   1416.3151    703.0000     49.6406
           28          23      0.9000      0.1467   1419.4601    703.0000     49.8201
           28          24      0.9000      0.1533   1422.9737    703.0000     50.0221
           28          25      0.9000      0.1600   1426.8358    703.0000     50.2459
           28          26      0.9000      0.1667   1431.0249    703.0000     50.4907
           28          27      0.9000      0.1733   1435.5182    703.0000     50.7556
           28          28      0.9000      0.1800   1440.2919    703.0000     51.0397
           28          29      0.9000      0.1867   1445.3212    703.0000     51.3419
           28          30      0.9000      0.1933   1450.5811    703.0000     51.6612
           28          31      0.9000      0.2000   1456.0461    703.0000     51.9963
           29           1      0.9333      0.0000   1458.0939    703.0000     52.1228
           29           2      0.9333      0.0067   1453.8404    703.0000     51.8607
           29           3      0.9333      0.0133   1449.8032    703.0000     51.6138
           29           4      0.9333      0.0200   1446.0019    703.0000     51.3831
           29           5      0.9333      0.0267   1442.4555    703.0000     51.1694
           29           6      0.9333      0.0333   1439.1823    703.0000     50.9734
           29           7      0.9333      0.0400   1436.1992    703.0000     50.7960
           29           8      0.9333      0.0467   1433.5220    703.0000     50.6376
           29           9      0.9333      0.0533   1431.1650    703.0000     50.4989
           29          10      0.9333      0.0600   1429.1410    703.0000     50.3803
           29          11      0.9333      0.0667   1427.4610    703.0000     50.2823
           29          12      0.9333      0.0733   1426.1342    703.0000     50.2051
           29          13      0.9333      0.0800   1425.1679    703.0000     50.1490
           29          14      0.9333      0.0867   1424.5672    703.0000     50.1142
           29          15      0.9333      0.0933   1424.3353    703.0000     50.1008
           29          16      0.9333      0.1000   1424.4731    703.0000     50.1088
           29          17      0.9333      0.1067   1424.9797    703.0000     50.1381
           29          18      0.9333      0.1133   1425.8516    703.0000     50.1887
           29          19      0.9333      0.1200   1427.0837    703.0000     50.2603
           29          20      0.9333      0.1267   1428.6685    703.0000     50.3527
           29          21      0.9333      0.1333   1430.5969    703.0000     50.4656
           29          22      0.9333      0.1400   1432.8577    703.0000     50.5985
           29          23      0.9333      0.1467   1435.4382    703.0000     50.7509
           29          24      0.9333      0.1533   1438.3242    703.0000     50.9223
           29          25      0.9333      0.1600   1441.4999    703.0000     51.1120
           29          26      0.9333      0.1667   1444.9484    703.0000     51.3194
           29          27      0.9333      0.1733   1448.6517    703.0000     51.5437
           29          28      0.9333      0.1800   1452.5910    703.0000     51.7841
           29          29      0.9333      0.1867   1456.7467    703.0000     52.0395
           29          30      0.9333      0.1933   1461.0988    703.0000     52.3092
           29          31      0.9333      0.2000   1465.6268    703.0000     52.5921
           30           1      0.9667      0.0000   1470.1673    703.0000     52.8781
           30           2      0.9667      0.0067   1466.8572    703.0000     52.6694
           30           3      0.9667      0.0133   1463.7192    703.0000     52.4727
           30           4      0.9667      0.0200   1460.7682    703.0000     52.2887
           30           5      0.9667      0.0267   1458.0180    703.0000     52.1181
           30           6      0.9667      0.0333   1455.4821    703.0000     51.9616
           30           7      0.9667      0.0400   1453.1730    703.0000     51.8197
           30           8      0.9667      0.0467   1451.1021    703.0000     51.6930
           30           9      0.9667      0.0533   1449.2800    703.0000     51.5819
           30          10      0.9667      0.0600   1447.7160    703.0000     51.4869
           30          11      0.9667      0.0667   1446.4180    703.0000     51.4082
           30          12      0.9667      0.0733   1445.3928    703.0000     51.3463
           30          13      0.9667      0.0800   1444.6455    703.0000     51.3012
           30          14      0.9667      0.0867   1444.1801    703.0000     51.2731
           30          15      0.9667      0.0933   1443.9986    703.0000     51.2622
           30          16      0.9667      0.1000   1444.1020    703.0000     51.2684
           30          17      0.9667      0.1067   1444.4892    703.0000     51.2917
           30          18      0.9667      0.1133   1445.1581    703.0000     51.3321
           30          19      0.9667      0.1200   1446.1047    703.0000     51.3893
           30          20      0.9667      0.1267   1447.3236    703.0000     51.4631
           30          21      0.9667      0.1333   1448.8083    703.0000     51.5532
           30          22      0.9667      0.1400   1450.5505    703.0000     51.6593
           30          23      0.9667      0.1467   1452.5410    703.0000     51.7810
           30          24      0.9667      0.1533   1454.7693    703.0000     51.9177
           30          25      0.9667      0.1600   1457.2240    703.0000     52.0690
           30          26      0.9667      0.1667   1459.8924    703.0000     52.2343
           30          27      0.9667      0.1733   1462.7615    703.0000     52.4128
           30          28      0.9667      0.1800   1465.8172    703.0000     52.6041
           30          29      0.9667      0.1867   1469.0450    703.0000     52.8072
           30          30      0.9667      0.1933   1472.4300    703.0000     53.0215
           30          31      0.9667      0.2000   1475.9567    703.0000     53.2461
           31           1      1.0000      0.0000   1482.7748    703.0000     53.6842
           31           2      1.0000      0.0067   1480.4435    703.0000     53.5338
           31           3      1.0000      0.0133   1478.2361    703.0000     53.3920
           31           4      1.0000      0.0200   1476.1624    703.0000     53.2592
           31           5      1.0000      0.0267   1474.2317    703.0000     53.1361
           31           6      1.0000      0.0333   1472.4529    703.0000     53.0229
           31           7      1.0000      0.0400   1470.8344    703.0000     52.9203
           31           8      1.0000      0.0467   1469.3838    703.0000     52.8286
           31           9      1.0000      0.0533   1468.1081    703.0000     52.7481
           31          10      1.0000      0.0600   1467.0136    703.0000     52.6792
           31          11      1.0000      0.0667   1466.1055    703.0000     52.6222
           31          12      1.0000      0.0733   1465.3883    703.0000     52.5772
           31          13      1.0000      0.0800   1464.8655    703.0000     52.5444
           31          14      1.0000      0.0867   1464.5396    703.0000     52.5240
           31          15      1.0000      0.0933   1464.4121    703.0000     52.5160
           31          16      1.0000      0.1000   1464.4834    703.0000     52.5205
           31          17      1.0000      0.1067   1464.7531    703.0000     52.5374
           31          18      1.0000      0.1133   1465.2195    703.0000     52.5666
           31          19      1.0000      0.1200   1465.8801    703.0000     52.6080
           31          20      1.0000      0.1267   1466.7313    703.0000     52.6615
           31          21      1.0000      0.1333   1467.7686    703.0000     52.7267
           31          22      1.0000      0.1400   1468.9865    703.0000     52.8035
           31          23      1.0000      0.1467   1470.3789    703.0000     52.8915
           31          24      1.0000      0.1533   1471.9387    703.0000     52.9903
           31          25      1.0000      0.1600   1473.6582    703.0000     53.0995
           31          26      1.0000      0.1667   1475.5290    703.0000     53.2188
           31          27      1.0000      0.1733   1477.5421    703.0000     53.3475
           31          28      1.0000      0.1800   1479.6880    703.0000     53.4852
           31          29      1.0000      0.1867   1481.9570    703.0000     53.6314
           31          30      1.0000      0.1933   1484.3388    703.0000     53.7854
           31          31      1.0000      0.2000   1486.8230    703.0000     53.9467
