 ====================================================================================
               Transient state solution for a 2D rectangular plate
                    for applications in steel reheating
                 e.g. Reheating furnaces for rolling processing
 ====================================================================================
 Author: Dickson Alves de Souza

 Based on lectures by professor Roberto Parreiras Tavares

 and book Numerical Heat Transfer and Fluid Flow
 by Suhas V. Patankar (1980)

 Federal University of Minas Gerais (UFMG)
 October 26th, 2017
 ====================================================================================
                              Input parameters:

 Lenght in X direction (meters):           1.0000
 Lenght in Y direction (meters):           0.2000
 Nodes in X direction:                         31
 Nodes in Y direction:                         31
 ====================================================================================

                       STAGE                1/  5
                       START Time:         0.0000
                       END Time:        1140.0000
                       Iterations:             2201

 ====================================================================================
 Temperature of fluid at left face (T left):             1223.1500
 Temperature of fluid at right face (T right):           1223.1500
 Temperature of fluid at bottom face (T bottom):         1223.1500
 Temperature of fluid at top face (T top):               1223.1500
 ------------------------------------------------------------------------------------
 Heat transfer coefficient at left face (H left):          50.0000
 Heat transfer coefficient at right face (H right):        50.0000
 Heat transfer coefficient at bottom face (H bottom):       8.0000
 Heat transfer coefficient at top face (H top):           150.0000
 ====================================================================================


 ====================================================================================

                       STAGE                2/  5
                       START Time:      1140.0000
                       END Time:        3060.0000
                       Iterations:             2201

 ====================================================================================
 Temperature of fluid at left face (T left):             1423.1500
 Temperature of fluid at right face (T right):           1423.1500
 Temperature of fluid at bottom face (T bottom):         1423.1500
 Temperature of fluid at top face (T top):               1423.1500
 ------------------------------------------------------------------------------------
 Heat transfer coefficient at left face (H left):          50.0000
 Heat transfer coefficient at right face (H right):        50.0000
 Heat transfer coefficient at bottom face (H bottom):       8.0000
 Heat transfer coefficient at top face (H top):           150.0000
 ====================================================================================


 ====================================================================================

                       STAGE                3/  5
                       START Time:      3060.0000
                       END Time:        4980.0000
                       Iterations:             2201

 ====================================================================================
 Temperature of fluid at left face (T left):             1513.1500
 Temperature of fluid at right face (T right):           1513.1500
 Temperature of fluid at bottom face (T bottom):         1513.1500
 Temperature of fluid at top face (T top):               1513.1500
 ------------------------------------------------------------------------------------
 Heat transfer coefficient at left face (H left):          50.0000
 Heat transfer coefficient at right face (H right):        50.0000
 Heat transfer coefficient at bottom face (H bottom):       8.0000
 Heat transfer coefficient at top face (H top):           150.0000
 ====================================================================================


 ====================================================================================

                       STAGE                4/  5
                       START Time:      4980.0000
                       END Time:        8400.0000
                       Iterations:             2201

 ====================================================================================
 Temperature of fluid at left face (T left):             1503.1500
 Temperature of fluid at right face (T right):           1503.1500
 Temperature of fluid at bottom face (T bottom):         1503.1500
 Temperature of fluid at top face (T top):               1523.1500
 ------------------------------------------------------------------------------------
 Heat transfer coefficient at left face (H left):          50.0000
 Heat transfer coefficient at right face (H right):        50.0000
 Heat transfer coefficient at bottom face (H bottom):       8.0000
 Heat transfer coefficient at top face (H top):           150.0000
 ====================================================================================


 ====================================================================================

                       STAGE                5/  5
                       START Time:      8400.0000
                       END Time:       18400.0000
                       Iterations:             2201

 ====================================================================================
 Temperature of fluid at left face (T left):             1393.1500
 Temperature of fluid at right face (T right):           1393.1500
 Temperature of fluid at bottom face (T bottom):         1393.1500
 Temperature of fluid at top face (T top):               1433.1500
 ------------------------------------------------------------------------------------
 Heat transfer coefficient at left face (H left):          50.0000
 Heat transfer coefficient at right face (H right):        50.0000
 Heat transfer coefficient at bottom face (H bottom):       8.0000
 Heat transfer coefficient at top face (H top):           150.0000
 ====================================================================================


 SOLUTION of LINEAR SYSTEM: TDMA (tri-diagonal matrix algorithm)
      ADI approach employed in solution.
 Tolerance:       0.0010

 ====================================================================================
                    Calculation Results
 Current time:    16800.000000000000       seconds
 Maximum Temperature :    1425.3595228802135
 Minimum Temperature :    1396.9720478788779
 Average(algebraic, non-weigthed) Temperature :    1411.9015274625203
 ====================================================================================
            I           J        X(m)        Y(m)        T(K)  Cp(J/kg.K) K(W/sq-m.K)
 ====================================================================================
            1           1      0.0000      0.0000   1396.9720    703.0000     48.5634
            1           2      0.0000      0.0067   1397.2441    703.0000     48.5783
            1           3      0.0000      0.0133   1397.5223    703.0000     48.5934
            1           4      0.0000      0.0200   1397.8072    703.0000     48.6090
            1           5      0.0000      0.0267   1398.0993    703.0000     48.6249
            1           6      0.0000      0.0333   1398.3992    703.0000     48.6413
            1           7      0.0000      0.0400   1398.7075    703.0000     48.6582
            1           8      0.0000      0.0467   1399.0250    703.0000     48.6755
            1           9      0.0000      0.0533   1399.3524    703.0000     48.6935
            1          10      0.0000      0.0600   1399.6907    703.0000     48.7120
            1          11      0.0000      0.0667   1400.0408    703.0000     48.7312
            1          12      0.0000      0.0733   1400.4038    703.0000     48.7511
            1          13      0.0000      0.0800   1400.7810    703.0000     48.7718
            1          14      0.0000      0.0867   1401.1739    703.0000     48.7934
            1          15      0.0000      0.0933   1401.5840    703.0000     48.8160
            1          16      0.0000      0.1000   1402.0133    703.0000     48.8396
            1          17      0.0000      0.1067   1402.4638    703.0000     48.8645
            1          18      0.0000      0.1133   1402.9381    703.0000     48.8906
            1          19      0.0000      0.1200   1403.4391    703.0000     48.9183
            1          20      0.0000      0.1267   1403.9704    703.0000     48.9477
            1          21      0.0000      0.1333   1404.5361    703.0000     48.9790
            1          22      0.0000      0.1400   1405.1413    703.0000     49.0126
            1          23      0.0000      0.1467   1405.7922    703.0000     49.0488
            1          24      0.0000      0.1533   1406.4966    703.0000     49.0879
            1          25      0.0000      0.1600   1407.2643    703.0000     49.1307
            1          26      0.0000      0.1667   1408.1078    703.0000     49.1778
            1          27      0.0000      0.1733   1409.0431    703.0000     49.2301
            1          28      0.0000      0.1800   1410.0914    703.0000     49.2889
            1          29      0.0000      0.1867   1411.2807    703.0000     49.3557
            1          30      0.0000      0.1933   1412.6486    703.0000     49.4328
            1          31      0.0000      0.2000   1414.2461    703.0000     49.5231
            2           1      0.0333      0.0000   1398.3516    703.0000     48.6387
            2           2      0.0333      0.0067   1398.7215    703.0000     48.6589
            2           3      0.0333      0.0133   1399.0994    703.0000     48.6796
            2           4      0.0333      0.0200   1399.4858    703.0000     48.7008
            2           5      0.0333      0.0267   1399.8815    703.0000     48.7224
            2           6      0.0333      0.0333   1400.2871    703.0000     48.7447
            2           7      0.0333      0.0400   1400.7034    703.0000     48.7676
            2           8      0.0333      0.0467   1401.1312    703.0000     48.7911
            2           9      0.0333      0.0533   1401.5717    703.0000     48.8153
            2          10      0.0333      0.0600   1402.0257    703.0000     48.8403
            2          11      0.0333      0.0667   1402.4945    703.0000     48.8662
            2          12      0.0333      0.0733   1402.9794    703.0000     48.8929
            2          13      0.0333      0.0800   1403.4817    703.0000     48.9207
            2          14      0.0333      0.0867   1404.0030    703.0000     48.9495
            2          15      0.0333      0.0933   1404.5451    703.0000     48.9795
            2          16      0.0333      0.1000   1405.1099    703.0000     49.0109
            2          17      0.0333      0.1067   1405.6995    703.0000     49.0436
            2          18      0.0333      0.1133   1406.3164    703.0000     49.0779
            2          19      0.0333      0.1200   1406.9631    703.0000     49.1139
            2          20      0.0333      0.1267   1407.6428    703.0000     49.1518
            2          21      0.0333      0.1333   1408.3586    703.0000     49.1918
            2          22      0.0333      0.1400   1409.1143    703.0000     49.2341
            2          23      0.0333      0.1467   1409.9139    703.0000     49.2789
            2          24      0.0333      0.1533   1410.7618    703.0000     49.3265
            2          25      0.0333      0.1600   1411.6630    703.0000     49.3772
            2          26      0.0333      0.1667   1412.6223    703.0000     49.4313
            2          27      0.0333      0.1733   1413.6452    703.0000     49.4891
            2          28      0.0333      0.1800   1414.7368    703.0000     49.5509
            2          29      0.0333      0.1867   1415.9017    703.0000     49.6171
            2          30      0.0333      0.1933   1417.1433    703.0000     49.6877
            2          31      0.0333      0.2000   1418.4622    703.0000     49.7630
            3           1      0.0667      0.0000   1399.5341    703.0000     48.7034
            3           2      0.0667      0.0067   1399.9874    703.0000     48.7283
            3           3      0.0667      0.0133   1400.4491    703.0000     48.7536
            3           4      0.0667      0.0200   1400.9197    703.0000     48.7794
            3           5      0.0667      0.0267   1401.3999    703.0000     48.8059
            3           6      0.0667      0.0333   1401.8904    703.0000     48.8329
            3           7      0.0667      0.0400   1402.3920    703.0000     48.8605
            3           8      0.0667      0.0467   1402.9054    703.0000     48.8888
            3           9      0.0667      0.0533   1403.4315    703.0000     48.9179
            3          10      0.0667      0.0600   1403.9713    703.0000     48.9478
            3          11      0.0667      0.0667   1404.5258    703.0000     48.9785
            3          12      0.0667      0.0733   1405.0959    703.0000     49.0101
            3          13      0.0667      0.0800   1405.6829    703.0000     49.0427
            3          14      0.0667      0.0867   1406.2880    703.0000     49.0763
            3          15      0.0667      0.0933   1406.9124    703.0000     49.1111
            3          16      0.0667      0.1000   1407.5576    703.0000     49.1471
            3          17      0.0667      0.1067   1408.2250    703.0000     49.1844
            3          18      0.0667      0.1133   1408.9160    703.0000     49.2230
            3          19      0.0667      0.1200   1409.6324    703.0000     49.2631
            3          20      0.0667      0.1267   1410.3758    703.0000     49.3048
            3          21      0.0667      0.1333   1411.1478    703.0000     49.3482
            3          22      0.0667      0.1400   1411.9503    703.0000     49.3934
            3          23      0.0667      0.1467   1412.7848    703.0000     49.4405
            3          24      0.0667      0.1533   1413.6531    703.0000     49.4895
            3          25      0.0667      0.1600   1414.5567    703.0000     49.5407
            3          26      0.0667      0.1667   1415.4968    703.0000     49.5940
            3          27      0.0667      0.1733   1416.4744    703.0000     49.6496
            3          28      0.0667      0.1800   1417.4901    703.0000     49.7075
            3          29      0.0667      0.1867   1418.5438    703.0000     49.7677
            3          30      0.0667      0.1933   1419.6348    703.0000     49.8301
            3          31      0.0667      0.2000   1420.7612    703.0000     49.8947
            4           1      0.1000      0.0000   1400.5081    703.0000     48.7568
            4           2      0.1000      0.0067   1401.0297    703.0000     48.7855
            4           3      0.1000      0.0133   1401.5590    703.0000     48.8146
            4           4      0.1000      0.0200   1402.0965    703.0000     48.8442
            4           5      0.1000      0.0267   1402.6427    703.0000     48.8743
            4           6      0.1000      0.0333   1403.1984    703.0000     48.9050
            4           7      0.1000      0.0400   1403.7641    703.0000     48.9363
            4           8      0.1000      0.0467   1404.3405    703.0000     48.9682
            4           9      0.1000      0.0533   1404.9282    703.0000     49.0008
            4          10      0.1000      0.0600   1405.5280    703.0000     49.0341
            4          11      0.1000      0.0667   1406.1405    703.0000     49.0681
            4          12      0.1000      0.0733   1406.7666    703.0000     49.1030
            4          13      0.1000      0.0800   1407.4069    703.0000     49.1387
            4          14      0.1000      0.0867   1408.0624    703.0000     49.1753
            4          15      0.1000      0.0933   1408.7338    703.0000     49.2128
            4          16      0.1000      0.1000   1409.4219    703.0000     49.2513
            4          17      0.1000      0.1067   1410.1276    703.0000     49.2909
            4          18      0.1000      0.1133   1410.8517    703.0000     49.3316
            4          19      0.1000      0.1200   1411.5950    703.0000     49.3734
            4          20      0.1000      0.1267   1412.3583    703.0000     49.4164
            4          21      0.1000      0.1333   1413.1422    703.0000     49.4607
            4          22      0.1000      0.1400   1413.9475    703.0000     49.5062
            4          23      0.1000      0.1467   1414.7747    703.0000     49.5531
            4          24      0.1000      0.1533   1415.6242    703.0000     49.6013
            4          25      0.1000      0.1600   1416.4964    703.0000     49.6509
            4          26      0.1000      0.1667   1417.3913    703.0000     49.7019
            4          27      0.1000      0.1733   1418.3089    703.0000     49.7542
            4          28      0.1000      0.1800   1419.2487    703.0000     49.8080
            4          29      0.1000      0.1867   1420.2101    703.0000     49.8631
            4          30      0.1000      0.1933   1421.1921    703.0000     49.9195
            4          31      0.1000      0.2000   1422.1934    703.0000     49.9771
            5           1      0.1333      0.0000   1401.2860    703.0000     48.7996
            5           2      0.1333      0.0067   1401.8618    703.0000     48.8313
            5           3      0.1333      0.0133   1402.4440    703.0000     48.8634
            5           4      0.1333      0.0200   1403.0331    703.0000     48.8959
            5           5      0.1333      0.0267   1403.6297    703.0000     48.9289
            5           6      0.1333      0.0333   1404.2341    703.0000     48.9623
            5           7      0.1333      0.0400   1404.8468    703.0000     48.9963
            5           8      0.1333      0.0467   1405.4684    703.0000     49.0308
            5           9      0.1333      0.0533   1406.0992    703.0000     49.0658
            5          10      0.1333      0.0600   1406.7399    703.0000     49.1015
            5          11      0.1333      0.0667   1407.3908    703.0000     49.1378
            5          12      0.1333      0.0733   1408.0525    703.0000     49.1747
            5          13      0.1333      0.0800   1408.7255    703.0000     49.2123
            5          14      0.1333      0.0867   1409.4103    703.0000     49.2507
            5          15      0.1333      0.0933   1410.1072    703.0000     49.2898
            5          16      0.1333      0.1000   1410.8169    703.0000     49.3296
            5          17      0.1333      0.1067   1411.5397    703.0000     49.3703
            5          18      0.1333      0.1133   1412.2760    703.0000     49.4118
            5          19      0.1333      0.1200   1413.0261    703.0000     49.4541
            5          20      0.1333      0.1267   1413.7905    703.0000     49.4973
            5          21      0.1333      0.1333   1414.5692    703.0000     49.5414
            5          22      0.1333      0.1400   1415.3627    703.0000     49.5864
            5          23      0.1333      0.1467   1416.1708    703.0000     49.6324
            5          24      0.1333      0.1533   1416.9938    703.0000     49.6792
            5          25      0.1333      0.1600   1417.8314    703.0000     49.7270
            5          26      0.1333      0.1667   1418.6835    703.0000     49.7756
            5          27      0.1333      0.1733   1419.5497    703.0000     49.8252
            5          28      0.1333      0.1800   1420.4297    703.0000     49.8757
            5          29      0.1333      0.1867   1421.3228    703.0000     49.9270
            5          30      0.1333      0.1933   1422.2282    703.0000     49.9791
            5          31      0.1333      0.2000   1423.1451    703.0000     50.0320
            6           1      0.1667      0.0000   1401.8931    703.0000     48.8330
            6           2      0.1667      0.0067   1402.5109    703.0000     48.8671
            6           3      0.1667      0.0133   1403.1339    703.0000     48.9015
            6           4      0.1667      0.0200   1403.7622    703.0000     48.9362
            6           5      0.1667      0.0267   1404.3964    703.0000     48.9713
            6           6      0.1667      0.0333   1405.0368    703.0000     49.0068
            6           7      0.1667      0.0400   1405.6836    703.0000     49.0427
            6           8      0.1667      0.0467   1406.3374    703.0000     49.0791
            6           9      0.1667      0.0533   1406.9983    703.0000     49.1159
            6          10      0.1667      0.0600   1407.6667    703.0000     49.1532
            6          11      0.1667      0.0667   1408.3430    703.0000     49.1909
            6          12      0.1667      0.0733   1409.0274    703.0000     49.2292
            6          13      0.1667      0.0800   1409.7203    703.0000     49.2681
            6          14      0.1667      0.0867   1410.4220    703.0000     49.3074
            6          15      0.1667      0.0933   1411.1326    703.0000     49.3474
            6          16      0.1667      0.1000   1411.8525    703.0000     49.3879
            6          17      0.1667      0.1067   1412.5819    703.0000     49.4290
            6          18      0.1667      0.1133   1413.3208    703.0000     49.4708
            6          19      0.1667      0.1200   1414.0696    703.0000     49.5131
            6          20      0.1667      0.1267   1414.8283    703.0000     49.5561
            6          21      0.1667      0.1333   1415.5968    703.0000     49.5997
            6          22      0.1667      0.1400   1416.3754    703.0000     49.6440
            6          23      0.1667      0.1467   1417.1639    703.0000     49.6889
            6          24      0.1667      0.1533   1417.9621    703.0000     49.7344
            6          25      0.1667      0.1600   1418.7700    703.0000     49.7806
            6          26      0.1667      0.1667   1419.5873    703.0000     49.8274
            6          27      0.1667      0.1733   1420.4137    703.0000     49.8748
            6          28      0.1667      0.1800   1421.2488    703.0000     49.9227
            6          29      0.1667      0.1867   1422.0922    703.0000     49.9713
            6          30      0.1667      0.1933   1422.9433    703.0000     50.0204
            6          31      0.1667      0.2000   1423.8015    703.0000     50.0699
            7           1      0.2000      0.0000   1402.3591    703.0000     48.8587
            7           2      0.2000      0.0067   1403.0091    703.0000     48.8946
            7           3      0.2000      0.0133   1403.6629    703.0000     48.9307
            7           4      0.2000      0.0200   1404.3207    703.0000     48.9671
            7           5      0.2000      0.0267   1404.9829    703.0000     49.0038
            7           6      0.2000      0.0333   1405.6496    703.0000     49.0408
            7           7      0.2000      0.0400   1406.3212    703.0000     49.0782
            7           8      0.2000      0.0467   1406.9979    703.0000     49.1159
            7           9      0.2000      0.0533   1407.6798    703.0000     49.1539
            7          10      0.2000      0.0600   1408.3673    703.0000     49.1923
            7          11      0.2000      0.0667   1409.0605    703.0000     49.2311
            7          12      0.2000      0.0733   1409.7597    703.0000     49.2703
            7          13      0.2000      0.0800   1410.4649    703.0000     49.3098
            7          14      0.2000      0.0867   1411.1764    703.0000     49.3498
            7          15      0.2000      0.0933   1411.8943    703.0000     49.3903
            7          16      0.2000      0.1000   1412.6188    703.0000     49.4311
            7          17      0.2000      0.1067   1413.3499    703.0000     49.4724
            7          18      0.2000      0.1133   1414.0877    703.0000     49.5141
            7          19      0.2000      0.1200   1414.8323    703.0000     49.5563
            7          20      0.2000      0.1267   1415.5836    703.0000     49.5990
            7          21      0.2000      0.1333   1416.3417    703.0000     49.6421
            7          22      0.2000      0.1400   1417.1065    703.0000     49.6856
            7          23      0.2000      0.1467   1417.8780    703.0000     49.7296
            7          24      0.2000      0.1533   1418.6559    703.0000     49.7741
            7          25      0.2000      0.1600   1419.4402    703.0000     49.8190
            7          26      0.2000      0.1667   1420.2306    703.0000     49.8643
            7          27      0.2000      0.1733   1421.0269    703.0000     49.9100
            7          28      0.2000      0.1800   1421.8289    703.0000     49.9561
            7          29      0.2000      0.1867   1422.6361    703.0000     50.0026
            7          30      0.2000      0.1933   1423.4482    703.0000     50.0495
            7          31      0.2000      0.2000   1424.2648    703.0000     50.0967
            8           1      0.2333      0.0000   1402.7124    703.0000     48.8782
            8           2      0.2333      0.0067   1403.3867    703.0000     48.9154
            8           3      0.2333      0.0133   1404.0637    703.0000     48.9529
            8           4      0.2333      0.0200   1404.7435    703.0000     48.9905
            8           5      0.2333      0.0267   1405.4264    703.0000     49.0284
            8           6      0.2333      0.0333   1406.1125    703.0000     49.0666
            8           7      0.2333      0.0400   1406.8020    703.0000     49.1050
            8           8      0.2333      0.0467   1407.4951    703.0000     49.1436
            8           9      0.2333      0.0533   1408.1919    703.0000     49.1825
            8          10      0.2333      0.0600   1408.8926    703.0000     49.2217
            8          11      0.2333      0.0667   1409.5973    703.0000     49.2612
            8          12      0.2333      0.0733   1410.3062    703.0000     49.3009
            8          13      0.2333      0.0800   1411.0192    703.0000     49.3410
            8          14      0.2333      0.0867   1411.7367    703.0000     49.3814
            8          15      0.2333      0.0933   1412.4585    703.0000     49.4221
            8          16      0.2333      0.1000   1413.1848    703.0000     49.4631
            8          17      0.2333      0.1067   1413.9156    703.0000     49.5044
            8          18      0.2333      0.1133   1414.6510    703.0000     49.5461
            8          19      0.2333      0.1200   1415.3909    703.0000     49.5880
            8          20      0.2333      0.1267   1416.1354    703.0000     49.6303
            8          21      0.2333      0.1333   1416.8843    703.0000     49.6730
            8          22      0.2333      0.1400   1417.6377    703.0000     49.7159
            8          23      0.2333      0.1467   1418.3955    703.0000     49.7592
            8          24      0.2333      0.1533   1419.1575    703.0000     49.8028
            8          25      0.2333      0.1600   1419.9237    703.0000     49.8467
            8          26      0.2333      0.1667   1420.6938    703.0000     49.8909
            8          27      0.2333      0.1733   1421.4677    703.0000     49.9353
            8          28      0.2333      0.1800   1422.2452    703.0000     49.9801
            8          29      0.2333      0.1867   1423.0260    703.0000     50.0251
            8          30      0.2333      0.1933   1423.8099    703.0000     50.0704
            8          31      0.2333      0.2000   1424.5966    703.0000     50.1159
            9           1      0.2667      0.0000   1402.9777    703.0000     48.8928
            9           2      0.2667      0.0067   1403.6702    703.0000     48.9311
            9           3      0.2667      0.0133   1404.3645    703.0000     48.9695
            9           4      0.2667      0.0200   1405.0606    703.0000     49.0081
            9           5      0.2667      0.0267   1405.7588    703.0000     49.0469
            9           6      0.2667      0.0333   1406.4591    703.0000     49.0859
            9           7      0.2667      0.0400   1407.1616    703.0000     49.1250
            9           8      0.2667      0.0467   1407.8666    703.0000     49.1643
            9           9      0.2667      0.0533   1408.5740    703.0000     49.2039
            9          10      0.2667      0.0600   1409.2840    703.0000     49.2436
            9          11      0.2667      0.0667   1409.9966    703.0000     49.2836
            9          12      0.2667      0.0733   1410.7120    703.0000     49.3237
            9          13      0.2667      0.0800   1411.4302    703.0000     49.3641
            9          14      0.2667      0.0867   1412.1512    703.0000     49.4047
            9          15      0.2667      0.0933   1412.8752    703.0000     49.4456
            9          16      0.2667      0.1000   1413.6020    703.0000     49.4867
            9          17      0.2667      0.1067   1414.3319    703.0000     49.5280
            9          18      0.2667      0.1133   1415.0647    703.0000     49.5695
            9          19      0.2667      0.1200   1415.8004    703.0000     49.6113
            9          20      0.2667      0.1267   1416.5391    703.0000     49.6533
            9          21      0.2667      0.1333   1417.2806    703.0000     49.6955
            9          22      0.2667      0.1400   1418.0250    703.0000     49.7380
            9          23      0.2667      0.1467   1418.7722    703.0000     49.7807
            9          24      0.2667      0.1533   1419.5221    703.0000     49.8236
            9          25      0.2667      0.1600   1420.2746    703.0000     49.8668
            9          26      0.2667      0.1667   1421.0295    703.0000     49.9101
            9          27      0.2667      0.1733   1421.7868    703.0000     49.9537
            9          28      0.2667      0.1800   1422.5463    703.0000     49.9975
            9          29      0.2667      0.1867   1423.3078    703.0000     50.0414
            9          30      0.2667      0.1933   1424.0713    703.0000     50.0855
            9          31      0.2667      0.2000   1424.8364    703.0000     50.1298
           10           1      0.3000      0.0000   1403.1750    703.0000     48.9037
           10           2      0.3000      0.0067   1403.8811    703.0000     48.9428
           10           3      0.3000      0.0133   1404.5882    703.0000     48.9819
           10           4      0.3000      0.0200   1405.2964    703.0000     49.0212
           10           5      0.3000      0.0267   1406.0058    703.0000     49.0606
           10           6      0.3000      0.0333   1406.7164    703.0000     49.1002
           10           7      0.3000      0.0400   1407.4285    703.0000     49.1399
           10           8      0.3000      0.0467   1408.1420    703.0000     49.1797
           10           9      0.3000      0.0533   1408.8570    703.0000     49.2197
           10          10      0.3000      0.0600   1409.5735    703.0000     49.2598
           10          11      0.3000      0.0667   1410.2917    703.0000     49.3001
           10          12      0.3000      0.0733   1411.0116    703.0000     49.3406
           10          13      0.3000      0.0800   1411.7332    703.0000     49.3812
           10          14      0.3000      0.0867   1412.4565    703.0000     49.4220
           10          15      0.3000      0.0933   1413.1817    703.0000     49.4629
           10          16      0.3000      0.1000   1413.9086    703.0000     49.5040
           10          17      0.3000      0.1067   1414.6373    703.0000     49.5453
           10          18      0.3000      0.1133   1415.3678    703.0000     49.5867
           10          19      0.3000      0.1200   1416.1001    703.0000     49.6283
           10          20      0.3000      0.1267   1416.8342    703.0000     49.6701
           10          21      0.3000      0.1333   1417.5700    703.0000     49.7120
           10          22      0.3000      0.1400   1418.3075    703.0000     49.7542
           10          23      0.3000      0.1467   1419.0466    703.0000     49.7964
           10          24      0.3000      0.1533   1419.7874    703.0000     49.8388
           10          25      0.3000      0.1600   1420.5296    703.0000     49.8814
           10          26      0.3000      0.1667   1421.2733    703.0000     49.9242
           10          27      0.3000      0.1733   1422.0184    703.0000     49.9670
           10          28      0.3000      0.1800   1422.7647    703.0000     50.0101
           10          29      0.3000      0.1867   1423.5122    703.0000     50.0532
           10          30      0.3000      0.1933   1424.2607    703.0000     50.0965
           10          31      0.3000      0.2000   1425.0101    703.0000     50.1399
           11           1      0.3333      0.0000   1403.3202    703.0000     48.9118
           11           2      0.3333      0.0067   1404.0362    703.0000     48.9514
           11           3      0.3333      0.0133   1404.7527    703.0000     48.9911
           11           4      0.3333      0.0200   1405.4697    703.0000     49.0308
           11           5      0.3333      0.0267   1406.1873    703.0000     49.0707
           11           6      0.3333      0.0333   1406.9055    703.0000     49.1107
           11           7      0.3333      0.0400   1407.6244    703.0000     49.1508
           11           8      0.3333      0.0467   1408.3441    703.0000     49.1910
           11           9      0.3333      0.0533   1409.0645    703.0000     49.2313
           11          10      0.3333      0.0600   1409.7858    703.0000     49.2717
           11          11      0.3333      0.0667   1410.5079    703.0000     49.3123
           11          12      0.3333      0.0733   1411.2309    703.0000     49.3529
           11          13      0.3333      0.0800   1411.9548    703.0000     49.3937
           11          14      0.3333      0.0867   1412.6796    703.0000     49.4345
           11          15      0.3333      0.0933   1413.4054    703.0000     49.4755
           11          16      0.3333      0.1000   1414.1322    703.0000     49.5167
           11          17      0.3333      0.1067   1414.8599    703.0000     49.5579
           11          18      0.3333      0.1133   1415.5885    703.0000     49.5993
           11          19      0.3333      0.1200   1416.3181    703.0000     49.6407
           11          20      0.3333      0.1267   1417.0487    703.0000     49.6823
           11          21      0.3333      0.1333   1417.7801    703.0000     49.7240
           11          22      0.3333      0.1400   1418.5124    703.0000     49.7659
           11          23      0.3333      0.1467   1419.2456    703.0000     49.8078
           11          24      0.3333      0.1533   1419.9796    703.0000     49.8499
           11          25      0.3333      0.1600   1420.7144    703.0000     49.8920
           11          26      0.3333      0.1667   1421.4498    703.0000     49.9343
           11          27      0.3333      0.1733   1422.1860    703.0000     49.9767
           11          28      0.3333      0.1800   1422.9227    703.0000     50.0192
           11          29      0.3333      0.1867   1423.6599    703.0000     50.0617
           11          30      0.3333      0.1933   1424.3976    703.0000     50.1044
           11          31      0.3333      0.2000   1425.1357    703.0000     50.1472
           12           1      0.3667      0.0000   1403.4252    703.0000     48.9176
           12           2      0.3667      0.0067   1404.1484    703.0000     48.9576
           12           3      0.3667      0.0133   1404.8717    703.0000     48.9977
           12           4      0.3667      0.0200   1405.5951    703.0000     49.0378
           12           5      0.3667      0.0267   1406.3185    703.0000     49.0780
           12           6      0.3667      0.0333   1407.0422    703.0000     49.1183
           12           7      0.3667      0.0400   1407.7660    703.0000     49.1587
           12           8      0.3667      0.0467   1408.4900    703.0000     49.1992
           12           9      0.3667      0.0533   1409.2143    703.0000     49.2397
           12          10      0.3667      0.0600   1409.9389    703.0000     49.2803
           12          11      0.3667      0.0667   1410.6637    703.0000     49.3210
           12          12      0.3667      0.0733   1411.3889    703.0000     49.3618
           12          13      0.3667      0.0800   1412.1144    703.0000     49.4027
           12          14      0.3667      0.0867   1412.8402    703.0000     49.4436
           12          15      0.3667      0.0933   1413.5664    703.0000     49.4846
           12          16      0.3667      0.1000   1414.2929    703.0000     49.5258
           12          17      0.3667      0.1067   1415.0198    703.0000     49.5670
           12          18      0.3667      0.1133   1415.7470    703.0000     49.6083
           12          19      0.3667      0.1200   1416.4746    703.0000     49.6496
           12          20      0.3667      0.1267   1417.2025    703.0000     49.6911
           12          21      0.3667      0.1333   1417.9308    703.0000     49.7326
           12          22      0.3667      0.1400   1418.6593    703.0000     49.7743
           12          23      0.3667      0.1467   1419.3882    703.0000     49.8160
           12          24      0.3667      0.1533   1420.1173    703.0000     49.8578
           12          25      0.3667      0.1600   1420.8466    703.0000     49.8996
           12          26      0.3667      0.1667   1421.5761    703.0000     49.9416
           12          27      0.3667      0.1733   1422.3058    703.0000     49.9836
           12          28      0.3667      0.1800   1423.0356    703.0000     50.0257
           12          29      0.3667      0.1867   1423.7655    703.0000     50.0678
           12          30      0.3667      0.1933   1424.4955    703.0000     50.1101
           12          31      0.3667      0.2000   1425.2254    703.0000     50.1524
           13           1      0.4000      0.0000   1403.4989    703.0000     48.9216
           13           2      0.4000      0.0067   1404.2271    703.0000     48.9619
           13           3      0.4000      0.0133   1404.9551    703.0000     49.0023
           13           4      0.4000      0.0200   1405.6829    703.0000     49.0427
           13           5      0.4000      0.0267   1406.4105    703.0000     49.0832
           13           6      0.4000      0.0333   1407.1379    703.0000     49.1237
           13           7      0.4000      0.0400   1407.8652    703.0000     49.1643
           13           8      0.4000      0.0467   1408.5923    703.0000     49.2049
           13           9      0.4000      0.0533   1409.3192    703.0000     49.2456
           13          10      0.4000      0.0600   1410.0461    703.0000     49.2863
           13          11      0.4000      0.0667   1410.7728    703.0000     49.3271
           13          12      0.4000      0.0733   1411.4995    703.0000     49.3680
           13          13      0.4000      0.0800   1412.2260    703.0000     49.4090
           13          14      0.4000      0.0867   1412.9525    703.0000     49.4500
           13          15      0.4000      0.0933   1413.6789    703.0000     49.4910
           13          16      0.4000      0.1000   1414.4052    703.0000     49.5321
           13          17      0.4000      0.1067   1415.1315    703.0000     49.5733
           13          18      0.4000      0.1133   1415.8577    703.0000     49.6145
           13          19      0.4000      0.1200   1416.5838    703.0000     49.6559
           13          20      0.4000      0.1267   1417.3099    703.0000     49.6972
           13          21      0.4000      0.1333   1418.0359    703.0000     49.7386
           13          22      0.4000      0.1400   1418.7617    703.0000     49.7801
           13          23      0.4000      0.1467   1419.4875    703.0000     49.8217
           13          24      0.4000      0.1533   1420.2132    703.0000     49.8633
           13          25      0.4000      0.1600   1420.9387    703.0000     49.9049
           13          26      0.4000      0.1667   1421.6640    703.0000     49.9466
           13          27      0.4000      0.1733   1422.3892    703.0000     49.9884
           13          28      0.4000      0.1800   1423.1142    703.0000     50.0302
           13          29      0.4000      0.1867   1423.8390    703.0000     50.0721
           13          30      0.4000      0.1933   1424.5636    703.0000     50.1140
           13          31      0.4000      0.2000   1425.2879    703.0000     50.1560
           14           1      0.4333      0.0000   1403.5474    703.0000     48.9243
           14           2      0.4333      0.0067   1404.2790    703.0000     48.9648
           14           3      0.4333      0.0133   1405.0101    703.0000     49.0053
           14           4      0.4333      0.0200   1405.7408    703.0000     49.0459
           14           5      0.4333      0.0267   1406.4711    703.0000     49.0865
           14           6      0.4333      0.0333   1407.2010    703.0000     49.1272
           14           7      0.4333      0.0400   1407.9305    703.0000     49.1679
           14           8      0.4333      0.0467   1408.6596    703.0000     49.2087
           14           9      0.4333      0.0533   1409.3883    703.0000     49.2495
           14          10      0.4333      0.0600   1410.1166    703.0000     49.2903
           14          11      0.4333      0.0667   1410.8446    703.0000     49.3312
           14          12      0.4333      0.0733   1411.5722    703.0000     49.3721
           14          13      0.4333      0.0800   1412.2994    703.0000     49.4131
           14          14      0.4333      0.0867   1413.0263    703.0000     49.4541
           14          15      0.4333      0.0933   1413.7529    703.0000     49.4952
           14          16      0.4333      0.1000   1414.4791    703.0000     49.5363
           14          17      0.4333      0.1067   1415.2049    703.0000     49.5775
           14          18      0.4333      0.1133   1415.9304    703.0000     49.6187
           14          19      0.4333      0.1200   1416.6556    703.0000     49.6599
           14          20      0.4333      0.1267   1417.3804    703.0000     49.7012
           14          21      0.4333      0.1333   1418.1048    703.0000     49.7426
           14          22      0.4333      0.1400   1418.8289    703.0000     49.7840
           14          23      0.4333      0.1467   1419.5527    703.0000     49.8254
           14          24      0.4333      0.1533   1420.2761    703.0000     49.8669
           14          25      0.4333      0.1600   1420.9991    703.0000     49.9084
           14          26      0.4333      0.1667   1421.7217    703.0000     49.9500
           14          27      0.4333      0.1733   1422.4440    703.0000     49.9916
           14          28      0.4333      0.1800   1423.1658    703.0000     50.0332
           14          29      0.4333      0.1867   1423.8872    703.0000     50.0749
           14          30      0.4333      0.1933   1424.6083    703.0000     50.1166
           14          31      0.4333      0.2000   1425.3288    703.0000     50.1584
           15           1      0.4667      0.0000   1403.5749    703.0000     48.9258
           15           2      0.4667      0.0067   1404.3084    703.0000     48.9664
           15           3      0.4667      0.0133   1405.0413    703.0000     49.0071
           15           4      0.4667      0.0200   1405.7737    703.0000     49.0477
           15           5      0.4667      0.0267   1406.5055    703.0000     49.0884
           15           6      0.4667      0.0333   1407.2368    703.0000     49.1292
           15           7      0.4667      0.0400   1407.9676    703.0000     49.1700
           15           8      0.4667      0.0467   1408.6978    703.0000     49.2108
           15           9      0.4667      0.0533   1409.4275    703.0000     49.2516
           15          10      0.4667      0.0600   1410.1566    703.0000     49.2925
           15          11      0.4667      0.0667   1410.8853    703.0000     49.3335
           15          12      0.4667      0.0733   1411.6134    703.0000     49.3744
           15          13      0.4667      0.0800   1412.3411    703.0000     49.4154
           15          14      0.4667      0.0867   1413.0682    703.0000     49.4565
           15          15      0.4667      0.0933   1413.7948    703.0000     49.4976
           15          16      0.4667      0.1000   1414.5209    703.0000     49.5387
           15          17      0.4667      0.1067   1415.2465    703.0000     49.5798
           15          18      0.4667      0.1133   1415.9716    703.0000     49.6210
           15          19      0.4667      0.1200   1416.6962    703.0000     49.6622
           15          20      0.4667      0.1267   1417.4203    703.0000     49.7035
           15          21      0.4667      0.1333   1418.1439    703.0000     49.7448
           15          22      0.4667      0.1400   1418.8670    703.0000     49.7861
           15          23      0.4667      0.1467   1419.5896    703.0000     49.8275
           15          24      0.4667      0.1533   1420.3117    703.0000     49.8689
           15          25      0.4667      0.1600   1421.0333    703.0000     49.9104
           15          26      0.4667      0.1667   1421.7544    703.0000     49.9518
           15          27      0.4667      0.1733   1422.4749    703.0000     49.9933
           15          28      0.4667      0.1800   1423.1950    703.0000     50.0349
           15          29      0.4667      0.1867   1423.9145    703.0000     50.0765
           15          30      0.4667      0.1933   1424.6335    703.0000     50.1181
           15          31      0.4667      0.2000   1425.3520    703.0000     50.1597
           16           1      0.5000      0.0000   1403.5839    703.0000     48.9263
           16           2      0.5000      0.0067   1404.3179    703.0000     48.9670
           16           3      0.5000      0.0133   1405.0514    703.0000     49.0076
           16           4      0.5000      0.0200   1405.7843    703.0000     49.0483
           16           5      0.5000      0.0267   1406.5167    703.0000     49.0891
           16           6      0.5000      0.0333   1407.2484    703.0000     49.1298
           16           7      0.5000      0.0400   1407.9796    703.0000     49.1706
           16           8      0.5000      0.0467   1408.7102    703.0000     49.2115
           16           9      0.5000      0.0533   1409.4402    703.0000     49.2524
           16          10      0.5000      0.0600   1410.1696    703.0000     49.2933
           16          11      0.5000      0.0667   1410.8985    703.0000     49.3342
           16          12      0.5000      0.0733   1411.6268    703.0000     49.3752
           16          13      0.5000      0.0800   1412.3546    703.0000     49.4162
           16          14      0.5000      0.0867   1413.0818    703.0000     49.4573
           16          15      0.5000      0.0933   1413.8084    703.0000     49.4983
           16          16      0.5000      0.1000   1414.5345    703.0000     49.5394
           16          17      0.5000      0.1067   1415.2600    703.0000     49.5806
           16          18      0.5000      0.1133   1415.9850    703.0000     49.6218
           16          19      0.5000      0.1200   1416.7094    703.0000     49.6630
           16          20      0.5000      0.1267   1417.4332    703.0000     49.7042
           16          21      0.5000      0.1333   1418.1566    703.0000     49.7455
           16          22      0.5000      0.1400   1418.8793    703.0000     49.7868
           16          23      0.5000      0.1467   1419.6016    703.0000     49.8282
           16          24      0.5000      0.1533   1420.3232    703.0000     49.8696
           16          25      0.5000      0.1600   1421.0444    703.0000     49.9110
           16          26      0.5000      0.1667   1421.7649    703.0000     49.9524
           16          27      0.5000      0.1733   1422.4850    703.0000     49.9939
           16          28      0.5000      0.1800   1423.2044    703.0000     50.0354
           16          29      0.5000      0.1867   1423.9234    703.0000     50.0770
           16          30      0.5000      0.1933   1424.6417    703.0000     50.1185
           16          31      0.5000      0.2000   1425.3595    703.0000     50.1601
           17           1      0.5333      0.0000   1403.5749    703.0000     48.9258
           17           2      0.5333      0.0067   1404.3084    703.0000     48.9664
           17           3      0.5333      0.0133   1405.0413    703.0000     49.0071
           17           4      0.5333      0.0200   1405.7737    703.0000     49.0477
           17           5      0.5333      0.0267   1406.5055    703.0000     49.0884
           17           6      0.5333      0.0333   1407.2368    703.0000     49.1292
           17           7      0.5333      0.0400   1407.9676    703.0000     49.1700
           17           8      0.5333      0.0467   1408.6978    703.0000     49.2108
           17           9      0.5333      0.0533   1409.4275    703.0000     49.2516
           17          10      0.5333      0.0600   1410.1567    703.0000     49.2925
           17          11      0.5333      0.0667   1410.8853    703.0000     49.3335
           17          12      0.5333      0.0733   1411.6135    703.0000     49.3744
           17          13      0.5333      0.0800   1412.3411    703.0000     49.4154
           17          14      0.5333      0.0867   1413.0682    703.0000     49.4565
           17          15      0.5333      0.0933   1413.7948    703.0000     49.4976
           17          16      0.5333      0.1000   1414.5209    703.0000     49.5387
           17          17      0.5333      0.1067   1415.2465    703.0000     49.5798
           17          18      0.5333      0.1133   1415.9716    703.0000     49.6210
           17          19      0.5333      0.1200   1416.6962    703.0000     49.6622
           17          20      0.5333      0.1267   1417.4203    703.0000     49.7035
           17          21      0.5333      0.1333   1418.1439    703.0000     49.7448
           17          22      0.5333      0.1400   1418.8670    703.0000     49.7861
           17          23      0.5333      0.1467   1419.5896    703.0000     49.8275
           17          24      0.5333      0.1533   1420.3117    703.0000     49.8689
           17          25      0.5333      0.1600   1421.0333    703.0000     49.9104
           17          26      0.5333      0.1667   1421.7544    703.0000     49.9518
           17          27      0.5333      0.1733   1422.4749    703.0000     49.9933
           17          28      0.5333      0.1800   1423.1950    703.0000     50.0349
           17          29      0.5333      0.1867   1423.9145    703.0000     50.0765
           17          30      0.5333      0.1933   1424.6335    703.0000     50.1181
           17          31      0.5333      0.2000   1425.3520    703.0000     50.1597
           18           1      0.5667      0.0000   1403.5474    703.0000     48.9243
           18           2      0.5667      0.0067   1404.2790    703.0000     48.9648
           18           3      0.5667      0.0133   1405.0101    703.0000     49.0053
           18           4      0.5667      0.0200   1405.7408    703.0000     49.0459
           18           5      0.5667      0.0267   1406.4711    703.0000     49.0865
           18           6      0.5667      0.0333   1407.2010    703.0000     49.1272
           18           7      0.5667      0.0400   1407.9305    703.0000     49.1679
           18           8      0.5667      0.0467   1408.6596    703.0000     49.2087
           18           9      0.5667      0.0533   1409.3883    703.0000     49.2495
           18          10      0.5667      0.0600   1410.1166    703.0000     49.2903
           18          11      0.5667      0.0667   1410.8446    703.0000     49.3312
           18          12      0.5667      0.0733   1411.5722    703.0000     49.3721
           18          13      0.5667      0.0800   1412.2994    703.0000     49.4131
           18          14      0.5667      0.0867   1413.0263    703.0000     49.4541
           18          15      0.5667      0.0933   1413.7529    703.0000     49.4952
           18          16      0.5667      0.1000   1414.4791    703.0000     49.5363
           18          17      0.5667      0.1067   1415.2049    703.0000     49.5775
           18          18      0.5667      0.1133   1415.9304    703.0000     49.6187
           18          19      0.5667      0.1200   1416.6556    703.0000     49.6599
           18          20      0.5667      0.1267   1417.3804    703.0000     49.7012
           18          21      0.5667      0.1333   1418.1048    703.0000     49.7426
           18          22      0.5667      0.1400   1418.8290    703.0000     49.7840
           18          23      0.5667      0.1467   1419.5527    703.0000     49.8254
           18          24      0.5667      0.1533   1420.2761    703.0000     49.8669
           18          25      0.5667      0.1600   1420.9991    703.0000     49.9084
           18          26      0.5667      0.1667   1421.7217    703.0000     49.9500
           18          27      0.5667      0.1733   1422.4440    703.0000     49.9916
           18          28      0.5667      0.1800   1423.1658    703.0000     50.0332
           18          29      0.5667      0.1867   1423.8872    703.0000     50.0749
           18          30      0.5667      0.1933   1424.6083    703.0000     50.1166
           18          31      0.5667      0.2000   1425.3288    703.0000     50.1584
           19           1      0.6000      0.0000   1403.4989    703.0000     48.9216
           19           2      0.6000      0.0067   1404.2271    703.0000     48.9619
           19           3      0.6000      0.0133   1404.9552    703.0000     49.0023
           19           4      0.6000      0.0200   1405.6830    703.0000     49.0427
           19           5      0.6000      0.0267   1406.4105    703.0000     49.0832
           19           6      0.6000      0.0333   1407.1379    703.0000     49.1237
           19           7      0.6000      0.0400   1407.8652    703.0000     49.1643
           19           8      0.6000      0.0467   1408.5923    703.0000     49.2049
           19           9      0.6000      0.0533   1409.3192    703.0000     49.2456
           19          10      0.6000      0.0600   1410.0461    703.0000     49.2863
           19          11      0.6000      0.0667   1410.7728    703.0000     49.3271
           19          12      0.6000      0.0733   1411.4995    703.0000     49.3680
           19          13      0.6000      0.0800   1412.2260    703.0000     49.4090
           19          14      0.6000      0.0867   1412.9525    703.0000     49.4500
           19          15      0.6000      0.0933   1413.6789    703.0000     49.4910
           19          16      0.6000      0.1000   1414.4053    703.0000     49.5321
           19          17      0.6000      0.1067   1415.1315    703.0000     49.5733
           19          18      0.6000      0.1133   1415.8577    703.0000     49.6145
           19          19      0.6000      0.1200   1416.5839    703.0000     49.6559
           19          20      0.6000      0.1267   1417.3099    703.0000     49.6972
           19          21      0.6000      0.1333   1418.0359    703.0000     49.7386
           19          22      0.6000      0.1400   1418.7618    703.0000     49.7801
           19          23      0.6000      0.1467   1419.4875    703.0000     49.8217
           19          24      0.6000      0.1533   1420.2132    703.0000     49.8633
           19          25      0.6000      0.1600   1420.9387    703.0000     49.9049
           19          26      0.6000      0.1667   1421.6641    703.0000     49.9466
           19          27      0.6000      0.1733   1422.3893    703.0000     49.9884
           19          28      0.6000      0.1800   1423.1143    703.0000     50.0302
           19          29      0.6000      0.1867   1423.8391    703.0000     50.0721
           19          30      0.6000      0.1933   1424.5636    703.0000     50.1140
           19          31      0.6000      0.2000   1425.2879    703.0000     50.1560
           20           1      0.6333      0.0000   1403.4253    703.0000     48.9176
           20           2      0.6333      0.0067   1404.1485    703.0000     48.9576
           20           3      0.6333      0.0133   1404.8717    703.0000     48.9977
           20           4      0.6333      0.0200   1405.5951    703.0000     49.0378
           20           5      0.6333      0.0267   1406.3186    703.0000     49.0780
           20           6      0.6333      0.0333   1407.0422    703.0000     49.1183
           20           7      0.6333      0.0400   1407.7660    703.0000     49.1587
           20           8      0.6333      0.0467   1408.4901    703.0000     49.1992
           20           9      0.6333      0.0533   1409.2144    703.0000     49.2397
           20          10      0.6333      0.0600   1409.9389    703.0000     49.2803
           20          11      0.6333      0.0667   1410.6638    703.0000     49.3210
           20          12      0.6333      0.0733   1411.3890    703.0000     49.3618
           20          13      0.6333      0.0800   1412.1145    703.0000     49.4027
           20          14      0.6333      0.0867   1412.8403    703.0000     49.4436
           20          15      0.6333      0.0933   1413.5665    703.0000     49.4846
           20          16      0.6333      0.1000   1414.2930    703.0000     49.5258
           20          17      0.6333      0.1067   1415.0199    703.0000     49.5670
           20          18      0.6333      0.1133   1415.7471    703.0000     49.6083
           20          19      0.6333      0.1200   1416.4747    703.0000     49.6496
           20          20      0.6333      0.1267   1417.2026    703.0000     49.6911
           20          21      0.6333      0.1333   1417.9308    703.0000     49.7326
           20          22      0.6333      0.1400   1418.6594    703.0000     49.7743
           20          23      0.6333      0.1467   1419.3882    703.0000     49.8160
           20          24      0.6333      0.1533   1420.1173    703.0000     49.8578
           20          25      0.6333      0.1600   1420.8466    703.0000     49.8996
           20          26      0.6333      0.1667   1421.5762    703.0000     49.9416
           20          27      0.6333      0.1733   1422.3059    703.0000     49.9836
           20          28      0.6333      0.1800   1423.0357    703.0000     50.0257
           20          29      0.6333      0.1867   1423.7656    703.0000     50.0678
           20          30      0.6333      0.1933   1424.4955    703.0000     50.1101
           20          31      0.6333      0.2000   1425.2255    703.0000     50.1524
           21           1      0.6667      0.0000   1403.3203    703.0000     48.9118
           21           2      0.6667      0.0067   1404.0363    703.0000     48.9514
           21           3      0.6667      0.0133   1404.7528    703.0000     48.9911
           21           4      0.6667      0.0200   1405.4698    703.0000     49.0309
           21           5      0.6667      0.0267   1406.1874    703.0000     49.0707
           21           6      0.6667      0.0333   1406.9056    703.0000     49.1107
           21           7      0.6667      0.0400   1407.6245    703.0000     49.1508
           21           8      0.6667      0.0467   1408.3442    703.0000     49.1910
           21           9      0.6667      0.0533   1409.0646    703.0000     49.2313
           21          10      0.6667      0.0600   1409.7859    703.0000     49.2717
           21          11      0.6667      0.0667   1410.5080    703.0000     49.3123
           21          12      0.6667      0.0733   1411.2310    703.0000     49.3529
           21          13      0.6667      0.0800   1411.9549    703.0000     49.3937
           21          14      0.6667      0.0867   1412.6797    703.0000     49.4346
           21          15      0.6667      0.0933   1413.4055    703.0000     49.4755
           21          16      0.6667      0.1000   1414.1323    703.0000     49.5167
           21          17      0.6667      0.1067   1414.8600    703.0000     49.5579
           21          18      0.6667      0.1133   1415.5886    703.0000     49.5993
           21          19      0.6667      0.1200   1416.3182    703.0000     49.6407
           21          20      0.6667      0.1267   1417.0488    703.0000     49.6823
           21          21      0.6667      0.1333   1417.7802    703.0000     49.7240
           21          22      0.6667      0.1400   1418.5125    703.0000     49.7659
           21          23      0.6667      0.1467   1419.2457    703.0000     49.8078
           21          24      0.6667      0.1533   1419.9797    703.0000     49.8499
           21          25      0.6667      0.1600   1420.7145    703.0000     49.8920
           21          26      0.6667      0.1667   1421.4499    703.0000     49.9343
           21          27      0.6667      0.1733   1422.1861    703.0000     49.9767
           21          28      0.6667      0.1800   1422.9228    703.0000     50.0192
           21          29      0.6667      0.1867   1423.6600    703.0000     50.0617
           21          30      0.6667      0.1933   1424.3977    703.0000     50.1044
           21          31      0.6667      0.2000   1425.1357    703.0000     50.1472
           22           1      0.7000      0.0000   1403.1751    703.0000     48.9037
           22           2      0.7000      0.0067   1403.8812    703.0000     48.9428
           22           3      0.7000      0.0133   1404.5883    703.0000     48.9819
           22           4      0.7000      0.0200   1405.2965    703.0000     49.0212
           22           5      0.7000      0.0267   1406.0059    703.0000     49.0606
           22           6      0.7000      0.0333   1406.7166    703.0000     49.1002
           22           7      0.7000      0.0400   1407.4287    703.0000     49.1399
           22           8      0.7000      0.0467   1408.1422    703.0000     49.1797
           22           9      0.7000      0.0533   1408.8572    703.0000     49.2197
           22          10      0.7000      0.0600   1409.5737    703.0000     49.2598
           22          11      0.7000      0.0667   1410.2919    703.0000     49.3001
           22          12      0.7000      0.0733   1411.0118    703.0000     49.3406
           22          13      0.7000      0.0800   1411.7334    703.0000     49.3812
           22          14      0.7000      0.0867   1412.4567    703.0000     49.4220
           22          15      0.7000      0.0933   1413.1819    703.0000     49.4629
           22          16      0.7000      0.1000   1413.9088    703.0000     49.5040
           22          17      0.7000      0.1067   1414.6375    703.0000     49.5453
           22          18      0.7000      0.1133   1415.3680    703.0000     49.5867
           22          19      0.7000      0.1200   1416.1003    703.0000     49.6283
           22          20      0.7000      0.1267   1416.8343    703.0000     49.6701
           22          21      0.7000      0.1333   1417.5701    703.0000     49.7121
           22          22      0.7000      0.1400   1418.3076    703.0000     49.7542
           22          23      0.7000      0.1467   1419.0468    703.0000     49.7964
           22          24      0.7000      0.1533   1419.7875    703.0000     49.8389
           22          25      0.7000      0.1600   1420.5298    703.0000     49.8814
           22          26      0.7000      0.1667   1421.2735    703.0000     49.9242
           22          27      0.7000      0.1733   1422.0185    703.0000     49.9670
           22          28      0.7000      0.1800   1422.7649    703.0000     50.0101
           22          29      0.7000      0.1867   1423.5123    703.0000     50.0532
           22          30      0.7000      0.1933   1424.2608    703.0000     50.0965
           22          31      0.7000      0.2000   1425.0102    703.0000     50.1399
           23           1      0.7333      0.0000   1402.9779    703.0000     48.8928
           23           2      0.7333      0.0067   1403.6704    703.0000     48.9311
           23           3      0.7333      0.0133   1404.3647    703.0000     48.9696
           23           4      0.7333      0.0200   1405.0609    703.0000     49.0082
           23           5      0.7333      0.0267   1405.7590    703.0000     49.0469
           23           6      0.7333      0.0333   1406.4594    703.0000     49.0859
           23           7      0.7333      0.0400   1407.1619    703.0000     49.1250
           23           8      0.7333      0.0467   1407.8669    703.0000     49.1643
           23           9      0.7333      0.0533   1408.5743    703.0000     49.2039
           23          10      0.7333      0.0600   1409.2843    703.0000     49.2436
           23          11      0.7333      0.0667   1409.9969    703.0000     49.2836
           23          12      0.7333      0.0733   1410.7123    703.0000     49.3237
           23          13      0.7333      0.0800   1411.4305    703.0000     49.3641
           23          14      0.7333      0.0867   1412.1515    703.0000     49.4048
           23          15      0.7333      0.0933   1412.8755    703.0000     49.4456
           23          16      0.7333      0.1000   1413.6024    703.0000     49.4867
           23          17      0.7333      0.1067   1414.3322    703.0000     49.5280
           23          18      0.7333      0.1133   1415.0650    703.0000     49.5695
           23          19      0.7333      0.1200   1415.8007    703.0000     49.6113
           23          20      0.7333      0.1267   1416.5394    703.0000     49.6533
           23          21      0.7333      0.1333   1417.2809    703.0000     49.6956
           23          22      0.7333      0.1400   1418.0253    703.0000     49.7380
           23          23      0.7333      0.1467   1418.7725    703.0000     49.7807
           23          24      0.7333      0.1533   1419.5224    703.0000     49.8237
           23          25      0.7333      0.1600   1420.2748    703.0000     49.8668
           23          26      0.7333      0.1667   1421.0298    703.0000     49.9102
           23          27      0.7333      0.1733   1421.7870    703.0000     49.9537
           23          28      0.7333      0.1800   1422.5465    703.0000     49.9975
           23          29      0.7333      0.1867   1423.3080    703.0000     50.0414
           23          30      0.7333      0.1933   1424.0714    703.0000     50.0855
           23          31      0.7333      0.2000   1424.8365    703.0000     50.1298
           24           1      0.7667      0.0000   1402.7127    703.0000     48.8782
           24           2      0.7667      0.0067   1403.3870    703.0000     48.9154
           24           3      0.7667      0.0133   1404.0640    703.0000     48.9529
           24           4      0.7667      0.0200   1404.7439    703.0000     48.9906
           24           5      0.7667      0.0267   1405.4268    703.0000     49.0285
           24           6      0.7667      0.0333   1406.1129    703.0000     49.0666
           24           7      0.7667      0.0400   1406.8025    703.0000     49.1050
           24           8      0.7667      0.0467   1407.4956    703.0000     49.1436
           24           9      0.7667      0.0533   1408.1924    703.0000     49.1825
           24          10      0.7667      0.0600   1408.8931    703.0000     49.2217
           24          11      0.7667      0.0667   1409.5978    703.0000     49.2612
           24          12      0.7667      0.0733   1410.3067    703.0000     49.3010
           24          13      0.7667      0.0800   1411.0197    703.0000     49.3410
           24          14      0.7667      0.0867   1411.7371    703.0000     49.3814
           24          15      0.7667      0.0933   1412.4590    703.0000     49.4221
           24          16      0.7667      0.1000   1413.1853    703.0000     49.4631
           24          17      0.7667      0.1067   1413.9161    703.0000     49.5044
           24          18      0.7667      0.1133   1414.6514    703.0000     49.5461
           24          19      0.7667      0.1200   1415.3914    703.0000     49.5881
           24          20      0.7667      0.1267   1416.1358    703.0000     49.6304
           24          21      0.7667      0.1333   1416.8848    703.0000     49.6730
           24          22      0.7667      0.1400   1417.6382    703.0000     49.7159
           24          23      0.7667      0.1467   1418.3959    703.0000     49.7592
           24          24      0.7667      0.1533   1419.1580    703.0000     49.8028
           24          25      0.7667      0.1600   1419.9241    703.0000     49.8467
           24          26      0.7667      0.1667   1420.6942    703.0000     49.8909
           24          27      0.7667      0.1733   1421.4681    703.0000     49.9354
           24          28      0.7667      0.1800   1422.2455    703.0000     49.9801
           24          29      0.7667      0.1867   1423.0263    703.0000     50.0251
           24          30      0.7667      0.1933   1423.8102    703.0000     50.0704
           24          31      0.7667      0.2000   1424.5969    703.0000     50.1159
           25           1      0.8000      0.0000   1402.3596    703.0000     48.8587
           25           2      0.8000      0.0067   1403.0096    703.0000     48.8946
           25           3      0.8000      0.0133   1403.6634    703.0000     48.9307
           25           4      0.8000      0.0200   1404.3213    703.0000     48.9671
           25           5      0.8000      0.0267   1404.9835    703.0000     49.0039
           25           6      0.8000      0.0333   1405.6503    703.0000     49.0409
           25           7      0.8000      0.0400   1406.3219    703.0000     49.0782
           25           8      0.8000      0.0467   1406.9985    703.0000     49.1159
           25           9      0.8000      0.0533   1407.6805    703.0000     49.1539
           25          10      0.8000      0.0600   1408.3680    703.0000     49.1923
           25          11      0.8000      0.0667   1409.0612    703.0000     49.2311
           25          12      0.8000      0.0733   1409.7604    703.0000     49.2703
           25          13      0.8000      0.0800   1410.4656    703.0000     49.3099
           25          14      0.8000      0.0867   1411.1771    703.0000     49.3499
           25          15      0.8000      0.0933   1411.8951    703.0000     49.3903
           25          16      0.8000      0.1000   1412.6195    703.0000     49.4312
           25          17      0.8000      0.1067   1413.3506    703.0000     49.4724
           25          18      0.8000      0.1133   1414.0884    703.0000     49.5142
           25          19      0.8000      0.1200   1414.8330    703.0000     49.5564
           25          20      0.8000      0.1267   1415.5843    703.0000     49.5990
           25          21      0.8000      0.1333   1416.3424    703.0000     49.6421
           25          22      0.8000      0.1400   1417.1072    703.0000     49.6857
           25          23      0.8000      0.1467   1417.8786    703.0000     49.7297
           25          24      0.8000      0.1533   1418.6565    703.0000     49.7741
           25          25      0.8000      0.1600   1419.4408    703.0000     49.8190
           25          26      0.8000      0.1667   1420.2312    703.0000     49.8643
           25          27      0.8000      0.1733   1421.0275    703.0000     49.9100
           25          28      0.8000      0.1800   1421.8294    703.0000     49.9561
           25          29      0.8000      0.1867   1422.6365    703.0000     50.0027
           25          30      0.8000      0.1933   1423.4486    703.0000     50.0495
           25          31      0.8000      0.2000   1424.2652    703.0000     50.0967
           26           1      0.8333      0.0000   1401.8938    703.0000     48.8330
           26           2      0.8333      0.0067   1402.5117    703.0000     48.8671
           26           3      0.8333      0.0133   1403.1346    703.0000     48.9015
           26           4      0.8333      0.0200   1403.7630    703.0000     48.9362
           26           5      0.8333      0.0267   1404.3973    703.0000     48.9714
           26           6      0.8333      0.0333   1405.0377    703.0000     49.0069
           26           7      0.8333      0.0400   1405.6846    703.0000     49.0428
           26           8      0.8333      0.0467   1406.3383    703.0000     49.0791
           26           9      0.8333      0.0533   1406.9992    703.0000     49.1159
           26          10      0.8333      0.0600   1407.6677    703.0000     49.1532
           26          11      0.8333      0.0667   1408.3440    703.0000     49.1910
           26          12      0.8333      0.0733   1409.0285    703.0000     49.2293
           26          13      0.8333      0.0800   1409.7214    703.0000     49.2681
           26          14      0.8333      0.0867   1410.4230    703.0000     49.3075
           26          15      0.8333      0.0933   1411.1337    703.0000     49.3474
           26          16      0.8333      0.1000   1411.8535    703.0000     49.3880
           26          17      0.8333      0.1067   1412.5829    703.0000     49.4291
           26          18      0.8333      0.1133   1413.3219    703.0000     49.4708
           26          19      0.8333      0.1200   1414.0706    703.0000     49.5132
           26          20      0.8333      0.1267   1414.8292    703.0000     49.5562
           26          21      0.8333      0.1333   1415.5978    703.0000     49.5998
           26          22      0.8333      0.1400   1416.3763    703.0000     49.6440
           26          23      0.8333      0.1467   1417.1648    703.0000     49.6889
           26          24      0.8333      0.1533   1417.9630    703.0000     49.7345
           26          25      0.8333      0.1600   1418.7709    703.0000     49.7806
           26          26      0.8333      0.1667   1419.5881    703.0000     49.8274
           26          27      0.8333      0.1733   1420.4145    703.0000     49.8748
           26          28      0.8333      0.1800   1421.2495    703.0000     49.9228
           26          29      0.8333      0.1867   1422.0928    703.0000     49.9713
           26          30      0.8333      0.1933   1422.9439    703.0000     50.0204
           26          31      0.8333      0.2000   1423.8021    703.0000     50.0700
           27           1      0.8667      0.0000   1401.2870    703.0000     48.7996
           27           2      0.8667      0.0067   1401.8628    703.0000     48.8313
           27           3      0.8667      0.0133   1402.4451    703.0000     48.8634
           27           4      0.8667      0.0200   1403.0343    703.0000     48.8960
           27           5      0.8667      0.0267   1403.6309    703.0000     48.9289
           27           6      0.8667      0.0333   1404.2353    703.0000     48.9624
           27           7      0.8667      0.0400   1404.8481    703.0000     48.9963
           27           8      0.8667      0.0467   1405.4697    703.0000     49.0308
           27           9      0.8667      0.0533   1406.1006    703.0000     49.0659
           27          10      0.8667      0.0600   1406.7413    703.0000     49.1016
           27          11      0.8667      0.0667   1407.3922    703.0000     49.1379
           27          12      0.8667      0.0733   1408.0539    703.0000     49.1748
           27          13      0.8667      0.0800   1408.7270    703.0000     49.2124
           27          14      0.8667      0.0867   1409.4117    703.0000     49.2508
           27          15      0.8667      0.0933   1410.1087    703.0000     49.2898
           27          16      0.8667      0.1000   1410.8183    703.0000     49.3297
           27          17      0.8667      0.1067   1411.5411    703.0000     49.3704
           27          18      0.8667      0.1133   1412.2774    703.0000     49.4119
           27          19      0.8667      0.1200   1413.0275    703.0000     49.4542
           27          20      0.8667      0.1267   1413.7918    703.0000     49.4974
           27          21      0.8667      0.1333   1414.5706    703.0000     49.5415
           27          22      0.8667      0.1400   1415.3640    703.0000     49.5865
           27          23      0.8667      0.1467   1416.1721    703.0000     49.6324
           27          24      0.8667      0.1533   1416.9950    703.0000     49.6793
           27          25      0.8667      0.1600   1417.8326    703.0000     49.7270
           27          26      0.8667      0.1667   1418.6846    703.0000     49.7757
           27          27      0.8667      0.1733   1419.5508    703.0000     49.8253
           27          28      0.8667      0.1800   1420.4307    703.0000     49.8757
           27          29      0.8667      0.1867   1421.3237    703.0000     49.9271
           27          30      0.8667      0.1933   1422.2291    703.0000     49.9792
           27          31      0.8667      0.2000   1423.1459    703.0000     50.0321
           28           1      0.9000      0.0000   1400.5095    703.0000     48.7569
           28           2      0.9000      0.0067   1401.0311    703.0000     48.7856
           28           3      0.9000      0.0133   1401.5605    703.0000     48.8147
           28           4      0.9000      0.0200   1402.0980    703.0000     48.8443
           28           5      0.9000      0.0267   1402.6444    703.0000     48.8744
           28           6      0.9000      0.0333   1403.2001    703.0000     48.9051
           28           7      0.9000      0.0400   1403.7659    703.0000     48.9364
           28           8      0.9000      0.0467   1404.3423    703.0000     48.9683
           28           9      0.9000      0.0533   1404.9301    703.0000     49.0009
           28          10      0.9000      0.0600   1405.5299    703.0000     49.0342
           28          11      0.9000      0.0667   1406.1424    703.0000     49.0682
           28          12      0.9000      0.0733   1406.7685    703.0000     49.1031
           28          13      0.9000      0.0800   1407.4089    703.0000     49.1388
           28          14      0.9000      0.0867   1408.0644    703.0000     49.1754
           28          15      0.9000      0.0933   1408.7358    703.0000     49.2129
           28          16      0.9000      0.1000   1409.4239    703.0000     49.2514
           28          17      0.9000      0.1067   1410.1296    703.0000     49.2910
           28          18      0.9000      0.1133   1410.8537    703.0000     49.3317
           28          19      0.9000      0.1200   1411.5969    703.0000     49.3735
           28          20      0.9000      0.1267   1412.3602    703.0000     49.4165
           28          21      0.9000      0.1333   1413.1441    703.0000     49.4608
           28          22      0.9000      0.1400   1413.9493    703.0000     49.5063
           28          23      0.9000      0.1467   1414.7764    703.0000     49.5532
           28          24      0.9000      0.1533   1415.6259    703.0000     49.6014
           28          25      0.9000      0.1600   1416.4980    703.0000     49.6510
           28          26      0.9000      0.1667   1417.3929    703.0000     49.7019
           28          27      0.9000      0.1733   1418.3103    703.0000     49.7543
           28          28      0.9000      0.1800   1419.2501    703.0000     49.8081
           28          29      0.9000      0.1867   1420.2114    703.0000     49.8632
           28          30      0.9000      0.1933   1421.1933    703.0000     49.9196
           28          31      0.9000      0.2000   1422.1945    703.0000     49.9772
           29           1      0.9333      0.0000   1399.5358    703.0000     48.7035
           29           2      0.9333      0.0067   1399.9893    703.0000     48.7284
           29           3      0.9333      0.0133   1400.4511    703.0000     48.7537
           29           4      0.9333      0.0200   1400.9218    703.0000     48.7796
           29           5      0.9333      0.0267   1401.4021    703.0000     48.8060
           29           6      0.9333      0.0333   1401.8927    703.0000     48.8330
           29           7      0.9333      0.0400   1402.3943    703.0000     48.8606
           29           8      0.9333      0.0467   1402.9078    703.0000     48.8890
           29           9      0.9333      0.0533   1403.4340    703.0000     48.9180
           29          10      0.9333      0.0600   1403.9739    703.0000     48.9479
           29          11      0.9333      0.0667   1404.5284    703.0000     48.9786
           29          12      0.9333      0.0733   1405.0986    703.0000     49.0102
           29          13      0.9333      0.0800   1405.6856    703.0000     49.0428
           29          14      0.9333      0.0867   1406.2907    703.0000     49.0765
           29          15      0.9333      0.0933   1406.9151    703.0000     49.1113
           29          16      0.9333      0.1000   1407.5603    703.0000     49.1472
           29          17      0.9333      0.1067   1408.2276    703.0000     49.1845
           29          18      0.9333      0.1133   1408.9186    703.0000     49.2231
           29          19      0.9333      0.1200   1409.6350    703.0000     49.2633
           29          20      0.9333      0.1267   1410.3783    703.0000     49.3050
           29          21      0.9333      0.1333   1411.1503    703.0000     49.3484
           29          22      0.9333      0.1400   1411.9527    703.0000     49.3935
           29          23      0.9333      0.1467   1412.7872    703.0000     49.4406
           29          24      0.9333      0.1533   1413.6554    703.0000     49.4897
           29          25      0.9333      0.1600   1414.5589    703.0000     49.5408
           29          26      0.9333      0.1667   1415.4989    703.0000     49.5942
           29          27      0.9333      0.1733   1416.4764    703.0000     49.6497
           29          28      0.9333      0.1800   1417.4920    703.0000     49.7076
           29          29      0.9333      0.1867   1418.5456    703.0000     49.7678
           29          30      0.9333      0.1933   1419.6364    703.0000     49.8302
           29          31      0.9333      0.2000   1420.7626    703.0000     49.8948
           30           1      0.9667      0.0000   1398.3539    703.0000     48.6388
           30           2      0.9667      0.0067   1398.7240    703.0000     48.6591
           30           3      0.9667      0.0133   1399.1020    703.0000     48.6797
           30           4      0.9667      0.0200   1399.4886    703.0000     48.7009
           30           5      0.9667      0.0267   1399.8844    703.0000     48.7226
           30           6      0.9667      0.0333   1400.2900    703.0000     48.7449
           30           7      0.9667      0.0400   1400.7064    703.0000     48.7677
           30           8      0.9667      0.0467   1401.1344    703.0000     48.7912
           30           9      0.9667      0.0533   1401.5749    703.0000     48.8155
           30          10      0.9667      0.0600   1402.0291    703.0000     48.8405
           30          11      0.9667      0.0667   1402.4979    703.0000     48.8663
           30          12      0.9667      0.0733   1402.9828    703.0000     48.8931
           30          13      0.9667      0.0800   1403.4851    703.0000     48.9209
           30          14      0.9667      0.0867   1404.0065    703.0000     48.9497
           30          15      0.9667      0.0933   1404.5486    703.0000     48.9797
           30          16      0.9667      0.1000   1405.1133    703.0000     49.0111
           30          17      0.9667      0.1067   1405.7030    703.0000     49.0438
           30          18      0.9667      0.1133   1406.3198    703.0000     49.0781
           30          19      0.9667      0.1200   1406.9665    703.0000     49.1141
           30          20      0.9667      0.1267   1407.6461    703.0000     49.1520
           30          21      0.9667      0.1333   1408.3618    703.0000     49.1920
           30          22      0.9667      0.1400   1409.1175    703.0000     49.2343
           30          23      0.9667      0.1467   1409.9170    703.0000     49.2791
           30          24      0.9667      0.1533   1410.7648    703.0000     49.3267
           30          25      0.9667      0.1600   1411.6658    703.0000     49.3774
           30          26      0.9667      0.1667   1412.6250    703.0000     49.4315
           30          27      0.9667      0.1733   1413.6478    703.0000     49.4892
           30          28      0.9667      0.1800   1414.7393    703.0000     49.5511
           30          29      0.9667      0.1867   1415.9040    703.0000     49.6172
           30          30      0.9667      0.1933   1417.1453    703.0000     49.6878
           30          31      0.9667      0.2000   1418.4641    703.0000     49.7631
           31           1      1.0000      0.0000   1396.9737    703.0000     48.5635
           31           2      1.0000      0.0067   1397.2458    703.0000     48.5784
           31           3      1.0000      0.0133   1397.5241    703.0000     48.5935
           31           4      1.0000      0.0200   1397.8091    703.0000     48.6091
           31           5      1.0000      0.0267   1398.1013    703.0000     48.6250
           31           6      1.0000      0.0333   1398.4013    703.0000     48.6414
           31           7      1.0000      0.0400   1398.7097    703.0000     48.6583
           31           8      1.0000      0.0467   1399.0273    703.0000     48.6756
           31           9      1.0000      0.0533   1399.3547    703.0000     48.6936
           31          10      1.0000      0.0600   1399.6930    703.0000     48.7121
           31          11      1.0000      0.0667   1400.0432    703.0000     48.7313
           31          12      1.0000      0.0733   1400.4062    703.0000     48.7512
           31          13      1.0000      0.0800   1400.7835    703.0000     48.7720
           31          14      1.0000      0.0867   1401.1764    703.0000     48.7936
           31          15      1.0000      0.0933   1401.5865    703.0000     48.8161
           31          16      1.0000      0.1000   1402.0157    703.0000     48.8398
           31          17      1.0000      0.1067   1402.4662    703.0000     48.8646
           31          18      1.0000      0.1133   1402.9405    703.0000     48.8908
           31          19      1.0000      0.1200   1403.4415    703.0000     48.9185
           31          20      1.0000      0.1267   1403.9727    703.0000     48.9478
           31          21      1.0000      0.1333   1404.5384    703.0000     48.9792
           31          22      1.0000      0.1400   1405.1435    703.0000     49.0127
           31          23      1.0000      0.1467   1405.7944    703.0000     49.0489
           31          24      1.0000      0.1533   1406.4987    703.0000     49.0881
           31          25      1.0000      0.1600   1407.2663    703.0000     49.1308
           31          26      1.0000      0.1667   1408.1097    703.0000     49.1779
           31          27      1.0000      0.1733   1409.0449    703.0000     49.2302
           31          28      1.0000      0.1800   1410.0931    703.0000     49.2890
           31          29      1.0000      0.1867   1411.2823    703.0000     49.3558
           31          30      1.0000      0.1933   1412.6501    703.0000     49.4329
           31          31      1.0000      0.2000   1414.2475    703.0000     49.5232
