 ====================================================================================
               Transient state solution for a 2D rectangular plate
                    for applications in steel reheating
                 e.g. Reheating furnaces for rolling processing
 ====================================================================================
 Author: Dickson Alves de Souza

 Based on lectures by professor Roberto Parreiras Tavares

 and book Numerical Heat Transfer and Fluid Flow
 by Suhas V. Patankar (1980)

 Federal University of Minas Gerais (UFMG)
 October 26th, 2017
 ====================================================================================
                              Input parameters:

 Lenght in X direction (meters):           1.0000
 Lenght in Y direction (meters):           0.2000
 Nodes in X direction:                         31
 Nodes in Y direction:                         31
 ====================================================================================

                       STAGE                1/  5
                       START Time:         0.0000
                       END Time:        1140.0000
                       Iterations:              394

 ====================================================================================
 Temperature of fluid at left face (T left):             1223.1500
 Temperature of fluid at right face (T right):           1223.1500
 Temperature of fluid at bottom face (T bottom):         1223.1500
 Temperature of fluid at top face (T top):               1223.1500
 ------------------------------------------------------------------------------------
 Heat transfer coefficient at left face (H left):          50.0000
 Heat transfer coefficient at right face (H right):        50.0000
 Heat transfer coefficient at bottom face (H bottom):       8.0000
 Heat transfer coefficient at top face (H top):           150.0000
 ====================================================================================


 ====================================================================================

                       STAGE                2/  5
                       START Time:      1140.0000
                       END Time:        3060.0000
                       Iterations:              394

 ====================================================================================
 Temperature of fluid at left face (T left):             1423.1500
 Temperature of fluid at right face (T right):           1423.1500
 Temperature of fluid at bottom face (T bottom):         1423.1500
 Temperature of fluid at top face (T top):               1423.1500
 ------------------------------------------------------------------------------------
 Heat transfer coefficient at left face (H left):          50.0000
 Heat transfer coefficient at right face (H right):        50.0000
 Heat transfer coefficient at bottom face (H bottom):       8.0000
 Heat transfer coefficient at top face (H top):           150.0000
 ====================================================================================


 SOLUTION of LINEAR SYSTEM: TDMA (tri-diagonal matrix algorithm)
      ADI approach employed in solution.
 Tolerance:       0.0010

 ====================================================================================
                    Calculation Results
 Current time:    1740.0000000000000       seconds
 Maximum Temperature :    1235.3388889417672
 Minimum Temperature :    777.49686877404235
 Average(algebraic, non-weigthed) Temperature :    901.78303893180146
 ====================================================================================
            I           J        X(m)        Y(m)        T(K)  Cp(J/kg.K) K(W/sq-m.K)
 ====================================================================================
            1           1      0.0000      0.0000   1184.6419    728.7151     40.1032
            1           2      0.0000      0.0067   1168.5673    751.9560     39.7302
            1           3      0.0000      0.0133   1153.5319    778.2054     39.4166
            1           4      0.0000      0.0200   1139.6482    806.2046     39.1572
            1           5      0.0000      0.0267   1127.0135    834.7379     38.9465
            1           6      0.0000      0.0333   1115.7048    862.6814     38.7783
            1           7      0.0000      0.0400   1105.7536    889.1069     38.6463
            1           8      0.0000      0.0467   1097.1649    913.2676     38.5443
            1           9      0.0000      0.0533   1089.9310    934.5727     38.4670
            1          10      0.0000      0.0600   1084.0235    952.6092     38.4096
            1          11      0.0000      0.0667   1079.4059    967.1019     38.3685
            1          12      0.0000      0.0733   1076.0414    977.8775     38.3405
            1          13      0.0000      0.0800   1073.8973    984.8384     38.3235
            1          14      0.0000      0.0867   1072.9481    987.9435     38.3162
            1          15      0.0000      0.0933   1073.1762    987.1960     38.3180
            1          16      0.0000      0.1000   1074.5731    982.6364     38.3288
            1          17      0.0000      0.1067   1077.1393    974.3411     38.3494
            1          18      0.0000      0.1133   1080.8836    962.4265     38.3813
            1          19      0.0000      0.1200   1085.8217    947.0589     38.4265
            1          20      0.0000      0.1267   1091.9732    928.4703     38.4880
            1          21      0.0000      0.1333   1099.3570    906.9832     38.5693
            1          22      0.0000      0.1400   1107.9816    883.0432     38.6745
            1          23      0.0000      0.1467   1117.8527    857.2020     38.8088
            1          24      0.0000      0.1533   1128.9649    830.1441     38.9775
            1          25      0.0000      0.1600   1141.2889    802.7111     39.1864
            1          26      0.0000      0.1667   1154.7506    775.9184     39.4407
            1          27      0.0000      0.1733   1169.2581    750.8537     39.7454
            1          28      0.0000      0.1800   1184.7014    728.6385     40.1046
            1          29      0.0000      0.1867   1200.9553    703.0000     40.5214
            1          30      0.0000      0.1933   1217.8697    703.0000     40.9971
            1          31      0.0000      0.2000   1235.3389    703.0000     41.5331
            2           1      0.0333      0.0000   1101.1474    901.9103     38.5902
            2           2      0.0333      0.0067   1080.9510    962.2143     38.3819
            2           3      0.0333      0.0133   1062.2939   1023.7667     38.2436
            2           4      0.0333      0.0200   1045.3354   1084.3889     38.1628
            2           5      0.0333      0.0267   1030.1845   1239.3217     38.1265
            2           6      0.0333      0.0333   1017.2074   1170.0488     38.1222
            2           7      0.0333      0.0400   1006.1449   1116.0695     38.1377
            2           8      0.0333      0.0467    996.8082   1073.9406     38.1646
            2           9      0.0333      0.0533    989.0571   1041.2342     38.1964
            2          10      0.0333      0.0600    982.7851   1016.2118     38.2284
            2          11      0.0333      0.0667    977.9103    997.6245     38.2571
            2          12      0.0333      0.0733    974.3704    984.5858     38.2800
            2          13      0.0333      0.0800    972.1188    976.4892     38.2955
            2          14      0.0333      0.0867    971.1229    972.9560     38.3026
            2          15      0.0333      0.0933    971.3625    973.8033     38.3009
            2          16      0.0333      0.1000    972.8297    979.0292     38.2906
            2          17      0.0333      0.1067    975.5288    988.8107     38.2723
            2          18      0.0333      0.1133    979.4769   1003.5171     38.2475
            2          19      0.0333      0.1200    984.7053   1023.7385     38.2180
            2          20      0.0333      0.1267    991.2622   1050.3349     38.1865
            2          21      0.0333      0.1333    999.2163   1084.5156     38.1565
            2          22      0.0333      0.1400   1008.6636   1127.9639     38.1326
            2          23      0.0333      0.1467   1019.7379   1183.0404     38.1211
            2          24      0.0333      0.1533   1032.6266   1253.1093     38.1301
            2          25      0.0333      0.1600   1047.5957   1076.0580     38.1712
            2          26      0.0333      0.1667   1064.2540   1017.0431     38.2557
            2          27      0.0333      0.1733   1082.5325    957.2512     38.3960
            2          28      0.0333      0.1800   1102.3222    898.6107     38.6042
            2          29      0.0333      0.1867   1123.4522    843.2955     38.8915
            2          30      0.0333      0.1933   1145.7118    793.5387     39.2669
            2          31      0.0333      0.2000   1168.8690    751.4734     39.7369
            3           1      0.0667      0.0000   1044.3010   1088.2265     38.1593
            3           2      0.0667      0.0067   1022.2536   1196.2013     38.1209
            3           3      0.0667      0.0133   1002.6360   1099.8780     38.1464
            3           4      0.0667      0.0200    985.2431   1025.8676     38.2152
            3           5      0.0667      0.0267    969.9140    968.7067     38.3114
            3           6      0.0667      0.0333    956.5195    924.4243     38.4224
            3           7      0.0667      0.0400    944.9405    890.0709     38.5384
            3           8      0.0667      0.0467    935.0713    863.4631     38.6518
            3           9      0.0667      0.0533    926.8205    842.9887     38.7566
            3          10      0.0667      0.0600    920.1108    827.4622     38.8486
            3          11      0.0667      0.0667    914.8777    816.0207     38.9245
            3          12      0.0667      0.0733    911.0693    808.0487     38.9821
            3          13      0.0667      0.0800    908.6453    803.1260     39.0197
            3          14      0.0667      0.0867    907.5764    800.9918     39.0365
            3          15      0.0667      0.0933    907.8439    801.5238     39.0323
            3          16      0.0667      0.1000    909.4397    804.7265     39.0072
            3          17      0.0667      0.1067    912.3664    810.7309     38.9622
            3          18      0.0667      0.1133    916.6371    819.8036     38.8986
            3          19      0.0667      0.1200    922.2765    832.3666     38.8183
            3          20      0.0667      0.1267    929.3212    849.0298     38.7239
            3          21      0.0667      0.1333    937.8212    870.6396     38.6189
            3          22      0.0667      0.1400    947.8406    898.3486     38.5077
            3          23      0.0667      0.1467    959.4594    933.7138     38.3959
            3          24      0.0667      0.1533    972.7748    978.8325     38.2909
            3          25      0.0667      0.1600    987.9018   1036.5298     38.2019
            3          26      0.0667      0.1667   1004.9724   1110.6101     38.1404
            3          27      0.0667      0.1733   1024.1622   1206.3505     38.1215
            3          28      0.0667      0.1800   1045.7101   1083.0025     38.1642
            3          29      0.0667      0.1867   1069.2744   1000.0947     38.2893
            3          30      0.0667      0.1933   1094.5833    920.7712     38.5158
            3          31      0.0667      0.2000   1121.3108    848.5487     38.8593
            4           1      0.1000      0.0000   1008.8161   1128.6913     38.1323
            4           2      0.1000      0.0067    985.9938   1028.8549     38.2113
            4           3      0.1000      0.0133    965.6175    953.9488     38.3443
            4           4      0.1000      0.0200    947.5115    897.3985     38.5111
            4           5      0.1000      0.0267    931.5225    854.4650     38.6958
            4           6      0.1000      0.0333    917.5178    821.7215     38.8858
            4           7      0.1000      0.0400    905.3826    796.6815     39.0715
            4           8      0.1000      0.0467    895.0178    777.5378     39.2453
            4           9      0.1000      0.0533    886.3386    762.9764     39.4015
            4          10      0.1000      0.0600    879.2731    752.0454     39.5356
            4          11      0.1000      0.0667    873.7616    744.0610     39.6447
            4          12      0.1000      0.0733    869.7553    738.5421     39.7263
            4          13      0.1000      0.0800    867.2163    735.1643     39.7791
            4          14      0.1000      0.0867    866.1168    733.7297     39.8022
            4          15      0.1000      0.0933    866.4387    734.1479     39.7954
            4          16      0.1000      0.1000    868.1738    736.4273     39.7591
            4          17      0.1000      0.1067    871.3235    740.6745     39.6941
            4          18      0.1000      0.1133    875.8993    747.1030     39.6019
            4          19      0.1000      0.1200    881.9223    756.0503     39.4846
            4          20      0.1000      0.1267    889.4245    768.0066     39.3448
            4          21      0.1000      0.1333    898.4487    783.6565     39.1862
            4          22      0.1000      0.1400    909.0498    803.9393     39.0133
            4          23      0.1000      0.1467    921.2955    830.1328     38.8320
            4          24      0.1000      0.1533    935.2680    863.9705     38.6494
            4          25      0.1000      0.1600    951.0652    907.8059     38.4748
            4          26      0.1000      0.1667    968.8038    964.8420     38.3197
            4          27      0.1000      0.1733    988.6218   1039.4563     38.1984
            4          28      0.1000      0.1800   1010.6814   1137.6590     38.1292
            4          29      0.1000      0.1867   1035.1713   1122.7834     38.1348
            4          30      0.1000      0.1933   1061.9667   1024.8946     38.2417
            4          31      0.1000      0.2000   1090.6878    932.3031     38.4747
            5           1      0.1333      0.0000    985.0209   1024.9870     38.2163
            5           2      0.1333      0.0067    961.6316    940.7302     38.3771
            5           3      0.1333      0.0133    940.7107    878.3763     38.5854
            5           4      0.1333      0.0200    922.0904    831.9413     38.8209
            5           5      0.1333      0.0267    905.6243    797.1517     39.0676
            5           6      0.1333      0.0333    891.1852    770.9487     39.3131
            5           7      0.1333      0.0400    878.6628    751.1384     39.5475
            5           8      0.1333      0.0467    867.9617    736.1464     39.7635
            5           9      0.1333      0.0533    858.9999    724.8438     39.9553
            5          10      0.1333      0.0600    851.7080    716.4240     40.1185
            5          11      0.1333      0.0667    846.0278    710.3159     40.2501
            5          12      0.1333      0.0733    841.9121    706.1235     40.3478
            5          13      0.1333      0.0800    839.3239    703.5833     40.4103
            5          14      0.1333      0.0867    838.2360    702.5372     40.4368
            5          15      0.1333      0.0933    838.6311    702.9156     40.4272
            5          16      0.1333      0.1000    840.5009    704.7294     40.3818
            5          17      0.1333      0.1067    843.8468    708.0705     40.3016
            5          18      0.1333      0.1133    848.6795    713.1199     40.1882
            5          19      0.1333      0.1200    855.0194    720.1647     40.0436
            5          20      0.1333      0.1267    862.8965    729.6244     39.8707
            5          21      0.1333      0.1333    872.3511    742.0911     39.6732
            5          22      0.1333      0.1400    883.4342    758.3859     39.4559
            5          23      0.1333      0.1467    896.2084    779.6372     39.2246
            5          24      0.1333      0.1533    910.7485    807.3905     38.9870
            5          25      0.1333      0.1600    927.1431    843.7600     38.7524
            5          26      0.1333      0.1667    945.4957    891.6393     38.5325
            5          27      0.1333      0.1733    965.9269    954.9938     38.3418
            5          28      0.1333      0.1800    988.5758   1039.2690     38.1986
            5          29      0.1333      0.1867   1013.6023   1151.9593     38.1253
            5          30      0.1333      0.1933   1041.1880   1099.8720     38.1496
            5          31      0.1333      0.2000   1071.0640    994.1487     38.3022
            6           1      0.1667      0.0000    968.2000    962.7551     38.3242
            6           2      0.1667      0.0067    944.4737    888.7585     38.5435
            6           3      0.1667      0.0133    923.2259    834.5486     38.8052
            6           4      0.1667      0.0200    904.2956    794.5799     39.0890
            6           5      0.1667      0.0267    887.5423    764.9197     39.3792
            6           6      0.1667      0.0333    872.8436    742.7756     39.6632
            6           7      0.1667      0.0400    860.0926    726.1641     39.9314
            6           8      0.1667      0.0467    849.1966    713.6763     40.1762
            6           9      0.1667      0.0533    840.0759    704.3138     40.3921
            6          10      0.1667      0.0600    832.6623    697.3719     40.5747
            6          11      0.1667      0.0667    826.8991    692.3580     40.7211
            6          12      0.1667      0.0733    822.7399    688.9346     40.8292
            6          13      0.1667      0.0800    820.1485    686.8806     40.8975
            6          14      0.1667      0.0867    819.0982    686.0648     40.9254
            6          15      0.1667      0.0933    819.5721    686.4318     40.9128
            6          16      0.1667      0.1000    821.5625    687.9941     40.8601
            6          17      0.1667      0.1067    825.0709    690.8337     40.7684
            6          18      0.1667      0.1133    830.1082    695.1099     40.6392
            6          19      0.1667      0.1200    836.6942    701.0761     40.4746
            6          20      0.1667      0.1267    844.8586    709.1055     40.2776
            6          21      0.1667      0.1333    854.6405    719.7297     40.0521
            6          22      0.1667      0.1400    866.0891    733.6938     39.8028
            6          23      0.1667      0.1467    879.2640    752.0318     39.5358
            6          24      0.1667      0.1533    894.2360    776.1728     39.2590
            6          25      0.1667      0.1600    911.0876    808.0862     38.9818
            6          26      0.1667      0.1667    929.9140    850.4826     38.7162
            6          27      0.1667      0.1733    950.8241    907.0893     38.4772
            6          28      0.1667      0.1800    973.9411    983.0302     38.2829
            6          29      0.1667      0.1867    999.4031   1085.3442     38.1559
            6          30      0.1667      0.1933   1027.3621   1223.6891     38.1235
            6          31      0.1667      0.2000   1057.9801   1038.7725     38.2190
            7           1      0.2000      0.0000    956.1545    923.2872     38.4258
            7           2      0.2000      0.0067    932.2222    856.2161     38.6869
            7           3      0.2000      0.0133    910.7772    807.4493     38.9865
            7           4      0.2000      0.0200    891.6625    771.7554     39.3045
            7           5      0.2000      0.0267    874.7411    745.4464     39.6250
            7           6      0.2000      0.0333    859.8931    725.9219     39.9357
            7           7      0.2000      0.0400    847.0138    711.3490     40.2270
            7           8      0.2000      0.0467    836.0120    700.4376     40.4914
            7           9      0.2000      0.0533    826.8092    692.2822     40.7235
            7          10      0.2000      0.0600    819.3381    686.2503     40.9190
            7          11      0.2000      0.0667    813.5426    681.9046     41.0750
            7          12      0.2000      0.0733    809.3770    678.9487     41.1895
            7          13      0.2000      0.0800    806.8054    677.1904     41.2611
            7          14      0.2000      0.0867    805.8019    676.5176     41.2892
            7          15      0.2000      0.0933    806.3498    676.8841     41.2738
            7          16      0.2000      0.1000    808.4420    678.3037     41.2154
            7          17      0.2000      0.1067    812.0802    680.8514     41.1150
            7          18      0.2000      0.1133    817.2756    684.6717     40.9741
            7          19      0.2000      0.1200    824.0486    689.9947     40.7950
            7          20      0.2000      0.1267    832.4287    697.1622     40.5806
            7          21      0.2000      0.1333    842.4550    706.6656     40.3348
            7          22      0.2000      0.1400    854.1764    719.1994     40.0625
            7          23      0.2000      0.1467    867.6518    735.7371     39.7700
            7          24      0.2000      0.1533    882.9508    757.6351     39.4650
            7          25      0.2000      0.1600    900.1541    786.7772     39.1574
            7          26      0.2000      0.1667    919.3545    825.7730     38.8594
            7          27      0.2000      0.1733    940.6575    878.2320     38.5860
            7          28      0.2000      0.1800    964.1827    949.1389     38.3559
            7          29      0.2000      0.1867    990.0639   1045.3693     38.1918
            7          30      0.2000      0.1933   1018.4489   1176.3920     38.1215
            7          31      0.2000      0.2000   1049.4975   1069.1079     38.1787
            8           1      0.2333      0.0000    947.5368    897.4716     38.5108
            8           2      0.2333      0.0067    923.4752    835.1249     38.8018
            8           3      0.2333      0.0133    901.9084    790.0433     39.1282
            8           4      0.2333      0.0200    882.6819    757.2192     39.4701
            8           5      0.2333      0.0267    865.6608    733.1397     39.8118
            8           6      0.2333      0.0333    850.7265    715.3411     40.1410
            8           7      0.2333      0.0400    837.7755    702.0982     40.4481
            8           8      0.2333      0.0467    826.7175    692.2051     40.7258
            8           9      0.2333      0.0533    817.4743    684.8222     40.9687
            8          10      0.2333      0.0600    809.9793    679.3678     41.1728
            8          11      0.2333      0.0667    804.1766    675.4433     41.3350
            8          12      0.2333      0.0733    800.0207    672.7810     41.4535
            8          13      0.2333      0.0800    797.4763    671.2087     41.5269
            8          14      0.2333      0.0867    796.5176    670.6273     41.5548
            8          15      0.2333      0.0933    797.1282    670.9969     41.5370
            8          16      0.2333      0.1000    799.3013    672.3321     41.4742
            8          17      0.2333      0.1067    803.0392    674.7027     41.3672
            8          18      0.2333      0.1133    808.3532    678.2428     41.2179
            8          19      0.2333      0.1200    815.2639    683.1663     41.0283
            8          20      0.2333      0.1267    823.8013    689.7932     40.8014
            8          21      0.2333      0.1333    834.0046    698.5866     40.5412
            8          22      0.2333      0.1400    845.9226    710.2064     40.2526
            8          23      0.2333      0.1467    859.6138    725.5837     39.9418
            8          24      0.2333      0.1533    875.1474    746.0252     39.6169
            8          25      0.2333      0.1600    892.6029    773.3562     39.2878
            8          26      0.2333      0.1667    912.0714    810.1179     38.9667
            8          27      0.2333      0.1733    933.6560    859.8396     38.6691
            8          28      0.2333      0.1800    957.4730    927.4112     38.4137
            8          29      0.2333      0.1867    983.6515   1019.5937     38.2236
            8          30      0.2333      0.1933   1012.3342   1145.7119     38.1268
            8          31      0.2333      0.2000   1043.6738   1090.5614     38.1572
            9           1      0.2667      0.0000    941.4158    880.2949     38.5774
            9           2      0.2667      0.0067    917.2713    821.1829     38.8894
            9           3      0.2667      0.0133    895.6275    778.6097     39.2347
            9           4      0.2667      0.0200    876.3316    747.7266     39.5934
            9           5      0.2667      0.0267    859.2499    725.1445     39.9498
            9           6      0.2667      0.0333    844.2648    708.4967     40.2917
            9           7      0.2667      0.0400    831.2732    696.1337     40.6097
            9           8      0.2667      0.0467    820.1852    686.9093     40.8965
            9           9      0.2667      0.0533    810.9228    680.0299     41.1468
            9          10      0.2667      0.0600    803.4197    674.9495     41.3565
            9          11      0.2667      0.0667    797.6201    671.2964     41.5227
            9          12      0.2667      0.0733    793.4787    668.8228     41.6437
            9          13      0.2667      0.0800    790.9602    667.3702     41.7182
            9          14      0.2667      0.0867    790.0390    666.8484     41.7456
            9          15      0.2667      0.0933    790.6992    667.2219     41.7259
            9          16      0.2667      0.1000    792.9339    668.5053     41.6598
            9          17      0.2667      0.1067    796.7456    670.7650     41.5481
            9          18      0.2667      0.1133    802.1460    674.1276     41.3927
            9          19      0.2667      0.1200    809.1561    678.7957     41.1956
            9          20      0.2667      0.1267    817.8057    685.0739     40.9599
            9          21      0.2667      0.1333    828.1343    693.4056     40.6894
            9          22      0.2667      0.1400    840.1907    704.4259     40.3893
            9          23      0.2667      0.1467    854.0335    719.0367     40.0658
            9          24      0.2667      0.1533    869.7310    738.5093     39.7268
            9          25      0.2667      0.1600    887.3623    764.6275     39.3825
            9          26      0.2667      0.1667    907.0173    799.8844     39.0453
            9          27      0.2667      0.1733    928.7972    847.7523     38.7307
            9          28      0.2667      0.1800    952.8159    913.0539     38.4575
            9          29      0.2667      0.1867    979.1994   1002.4679     38.2492
            9          30      0.2667      0.1933   1008.0862   1125.2166     38.1337
            9          31      0.2667      0.2000   1039.6243   1105.7755     38.1452
           10           1      0.3000      0.0000    937.1147    868.7786     38.6272
           10           2      0.3000      0.0067    912.9162    811.8781     38.9539
           10           3      0.3000      0.0133    891.2229    771.0122     39.3124
           10           4      0.3000      0.0200    871.8831    741.4440     39.6827
           10           5      0.3000      0.0267    854.7637    719.8710     40.0493
           10           6      0.3000      0.0333    839.7478    703.9943     40.4000
           10           7      0.3000      0.0400    826.7325    692.2177     40.7254
           10           8      0.3000      0.0467    815.6281    683.4364     41.0184
           10           9      0.3000      0.0533    806.3569    676.8888     41.2736
           10          10      0.3000      0.0600    798.8524    672.0537     41.4871
           10          11      0.3000      0.0667    793.0589    668.5780     41.6561
           10          12      0.3000      0.0733    788.9313    666.2274     41.7786
           10          13      0.3000      0.0800    786.4342    664.8530     41.8536
           10          14      0.3000      0.0867    785.5423    664.3705     41.8806
           10          15      0.3000      0.0933    786.2396    664.7473     41.8595
           10          16      0.3000      0.1000    788.5194    665.9982     41.7910
           10          17      0.3000      0.1067    792.3844    668.1870     41.6760
           10          18      0.3000      0.1133    797.8465    671.4349     41.5162
           10          19      0.3000      0.1200    804.9267    675.9368     41.3138
           10          20      0.3000      0.1267    813.6551    681.9864     41.0719
           10          21      0.3000      0.1333    824.0713    690.0132     40.7944
           10          22      0.3000      0.1400    836.2240    700.6355     40.4862
           10          23      0.3000      0.1467    850.1716    714.7341     40.1537
           10          24      0.3000      0.1533    865.9825    733.5557     39.8050
           10          25      0.3000      0.1600    883.7351    758.8551     39.4502
           10          26      0.3000      0.1667    903.5184    793.0911     39.1017
           10          27      0.3000      0.1733    925.4327    839.6963     38.7752
           10          28      0.3000      0.1800    949.5899    903.4457     38.4897
           10          29      0.3000      0.1867    976.1140    990.9606     38.2685
           10          30      0.3000      0.1933   1005.1406   1111.3905     38.1400
           10          31      0.3000      0.2000   1036.8145   1116.4735     38.1383
           11           1      0.3333      0.0000    934.1339    861.0579     38.6632
           11           2      0.3333      0.0067    909.9001    805.6597     39.0001
           11           3      0.3333      0.0133    888.1746    765.9500     39.3676
           11           4      0.3333      0.0200    868.8065    737.2690     39.7459
           11           5      0.3333      0.0267    851.6632    716.3743     40.1195
           11           6      0.3333      0.0333    836.6281    701.0140     40.4762
           11           7      0.3333      0.0400    823.5986    689.6284     40.8067
           11           8      0.3333      0.0467    812.4850    681.1413     41.1039
           11           9      0.3333      0.0533    803.2096    674.8132     41.3624
           11          10      0.3333      0.0600    795.7061    670.1397     41.5784
           11          11      0.3333      0.0667    789.9186    666.7805     41.7491
           11          12      0.3333      0.0733    785.8022    664.5106     41.8727
           11          13      0.3333      0.0800    783.3214    663.1876     41.9481
           11          14      0.3333      0.0867    782.4509    662.7311     41.9747
           11          15      0.3333      0.0933    783.1749    663.1105     41.9525
           11          16      0.3333      0.1000    785.4867    664.3406     41.8823
           11          17      0.3333      0.1067    789.3892    666.4832     41.7649
           11          18      0.3333      0.1133    794.8942    669.6561     41.6022
           11          19      0.3333      0.1200    802.0229    674.0487     41.3962
           11          20      0.3333      0.1267    810.8055    679.9471     41.1500
           11          21      0.3333      0.1333    821.2816    687.7714     40.8675
           11          22      0.3333      0.1400    833.5000    698.1278     40.5538
           11          23      0.3333      0.1467    847.5191    711.8828     40.2152
           11          24      0.3333      0.1533    863.4070    730.2657     39.8597
           11          25      0.3333      0.1600    881.2418    755.0110     39.4976
           11          26      0.3333      0.1667    901.1122    788.5538     39.1414
           11          27      0.3333      0.1733    923.1175    834.2985     38.8067
           11          28      0.3333      0.1800    947.3687    896.9872     38.5126
           11          29      0.3333      0.1867    973.9883    983.2009     38.2826
           11          30      0.3333      0.1933   1003.1100   1102.0395     38.1451
           11          31      0.3333      0.2000   1034.8764   1123.9200     38.1342
           12           1      0.3667      0.0000    932.1062    855.9249     38.6884
           12           2      0.3667      0.0067    907.8492    801.5344     39.0322
           12           3      0.3667      0.0133    886.1027    762.5984     39.4058
           12           4      0.3667      0.0200    866.7162    734.5096     39.7896
           12           5      0.3667      0.0267    849.5575    714.0665     40.1679
           12           6      0.3667      0.0333    834.5103    699.0490     40.5286
           12           7      0.3667      0.0400    821.4720    687.9222     40.8625
           12           8      0.3667      0.0467    810.3530    679.6292     41.1625
           12           9      0.3667      0.0533    801.0757    673.4455     41.4232
           12          10      0.3667      0.0600    793.5735    668.8782     41.6409
           12          11      0.3667      0.0667    787.7908    665.5953     41.8128
           12          12      0.3667      0.0733    783.6825    663.3782     41.9371
           12          13      0.3667      0.0800    781.2133    662.0887     42.0126
           12          14      0.3667      0.0867    780.3578    661.6492     42.0389
           12          15      0.3667      0.0933    781.1000    662.0303     42.0161
           12          16      0.3667      0.1000    783.4336    663.2468     41.9446
           12          17      0.3667      0.1067    787.3613    665.3592     41.8257
           12          18      0.3667      0.1133    792.8950    668.4827     41.6609
           12          19      0.3667      0.1200    800.0560    672.8030     41.4525
           12          20      0.3667      0.1267    808.8743    678.6011     41.2034
           12          21      0.3667      0.1333    819.3897    686.2903     40.9176
           12          22      0.3667      0.1400    831.6508    696.4684     40.6002
           12          23      0.3667      0.1467    845.7160    709.9916     40.2574
           12          24      0.3667      0.1533    861.6532    728.0770     39.8975
           12          25      0.3667      0.1600    879.5402    752.4441     39.5305
           12          26      0.3667      0.1667    899.4653    785.5103     39.1690
           12          27      0.3667      0.1733    921.5274    830.6589     38.8287
           12          28      0.3667      0.1800    945.8369    892.6070     38.5288
           12          29      0.3667      0.1867    972.5159    977.9061     38.2927
           12          30      0.3667      0.1933   1001.6977   1095.6220     38.1490
           12          31      0.3667      0.2000   1033.5250   1129.1445     38.1317
           13           1      0.4000      0.0000    930.7660    852.5846     38.7053
           13           2      0.4000      0.0067    906.4941    798.8537     39.0537
           13           3      0.4000      0.0133    884.7340    760.4233     39.4314
           13           4      0.4000      0.0200    865.3357    732.7209     39.8187
           13           5      0.4000      0.0267    848.1672    712.5718     40.2001
           13           6      0.4000      0.0333    833.1123    697.7770     40.5635
           13           7      0.4000      0.0400    820.0685    686.8181     40.8996
           13           8      0.4000      0.0467    808.9462    678.6508     41.2014
           13           9      0.4000      0.0533    799.6678    672.5603     41.4636
           13          10      0.4000      0.0600    792.1668    668.0614     41.6824
           13          11      0.4000      0.0667    786.3875    664.8276     41.8551
           13          12      0.4000      0.0733    782.2847    662.6444     41.9797
           13          13      0.4000      0.0800    779.8232    661.3764     42.0554
           13          14      0.4000      0.0867    778.9775    660.9478     42.0815
           13          15      0.4000      0.0933    779.7317    661.3299     42.0582
           13          16      0.4000      0.1000    782.0793    662.5374     41.9860
           13          17      0.4000      0.1067    786.0231    664.6301     41.8661
           13          18      0.4000      0.1133    791.5750    667.7213     41.6999
           13          19      0.4000      0.1200    798.7559    671.9941     41.4899
           13          20      0.4000      0.1267    807.5962    677.7259     41.2390
           13          21      0.4000      0.1333    818.1350    685.3251     40.9511
           13          22      0.4000      0.1400    830.4209    695.3834     40.6312
           13          23      0.4000      0.1467    844.5116    708.7492     40.2859
           13          24      0.4000      0.1533    860.4744    726.6291     39.9230
           13          25      0.4000      0.1600    878.3861    750.7290     39.5529
           13          26      0.4000      0.1667    898.3334    783.4473     39.1882
           13          27      0.4000      0.1733    920.4129    828.1404     38.8444
           13          28      0.4000      0.1800    944.7318    889.4834     38.5407
           13          29      0.4000      0.1867    971.4071    973.9611     38.3006
           13          30      0.4000      0.1933   1000.5649   1090.5250     38.1523
           13          31      0.4000      0.2000   1032.3372   1251.4624     38.1296
           14           1      0.4333      0.0000    929.9278    850.5166     38.7161
           14           2      0.4333      0.0067    905.6468    797.1957     39.0672
           14           3      0.4333      0.0133    883.8784    759.0790     39.4475
           14           4      0.4333      0.0200    864.4728    731.6161     39.8370
           14           5      0.4333      0.0267    847.2983    711.6492     40.2203
           14           6      0.4333      0.0333    832.2386    696.9922     40.5854
           14           7      0.4333      0.0400    819.1915    686.1369     40.9229
           14           8      0.4333      0.0467    808.0673    678.0471     41.2258
           14           9      0.4333      0.0533    798.7883    672.0141     41.4890
           14          10      0.4333      0.0600    791.2881    667.5572     41.7084
           14          11      0.4333      0.0667    785.5110    664.3537     41.8815
           14          12      0.4333      0.0733    781.4118    662.1912     42.0065
           14          13      0.4333      0.0800    778.9551    660.9365     42.0822
           14          14      0.4333      0.0867    778.1157    660.5146     42.1082
           14          15      0.4333      0.0933    778.8774    660.8973     42.0846
           14          16      0.4333      0.1000    781.2340    662.0994     42.0120
           14          17      0.4333      0.1067    785.1880    664.1800     41.8913
           14          18      0.4333      0.1133    790.7514    667.2515     41.7244
           14          19      0.4333      0.1200    797.9452    671.4952     41.5133
           14          20      0.4333      0.1267    806.7995    677.1865     41.2612
           14          21      0.4333      0.1333    817.3537    684.7308     40.9720
           14          22      0.4333      0.1400    829.6561    694.7163     40.6506
           14          23      0.4333      0.1467    843.7646    707.9869     40.3036
           14          24      0.4333      0.1533    859.7462    725.7439     39.9389
           14          25      0.4333      0.1600    877.6777    749.6864     39.5668
           14          26      0.4333      0.1667    897.6456    782.2053     39.1999
           14          27      0.4333      0.1733    919.7467    826.6474     38.8538
           14          28      0.4333      0.1800    944.0879    887.6779     38.5477
           14          29      0.4333      0.1867    970.7867    971.7699     38.3050
           14          30      0.4333      0.1933    999.9699   1087.8658     38.1541
           14          31      0.4333      0.2000   1031.7709   1248.2504     38.1288
           15           1      0.4667      0.0000    929.4704    849.3948     38.7220
           15           2      0.4667      0.0067    905.1844    796.2967     39.0747
           15           3      0.4667      0.0133    883.4115    758.3505     39.4563
           15           4      0.4667      0.0200    864.0020    731.0177     39.8470
           15           5      0.4667      0.0267    846.8242    711.1495     40.2314
           15           6      0.4667      0.0333    831.7620    696.5672     40.5974
           15           7      0.4667      0.0400    818.7131    685.7681     40.9356
           15           8      0.4667      0.0467    807.5879    677.7202     41.2392
           15           9      0.4667      0.0533    798.3086    671.7183     41.5028
           15          10      0.4667      0.0600    790.8089    667.2842     41.7227
           15          11      0.4667      0.0667    785.0331    664.0969     41.8960
           15          12      0.4667      0.0733    780.9358    661.9458     42.0211
           15          13      0.4667      0.0800    778.4819    660.6982     42.0969
           15          14      0.4667      0.0867    777.6459    660.2799     42.1228
           15          15      0.4667      0.0933    778.4119    660.6631     42.0990
           15          16      0.4667      0.1000    780.7735    661.8623     42.0261
           15          17      0.4667      0.1067    784.7332    663.9365     41.9051
           15          18      0.4667      0.1133    790.3031    666.9975     41.7377
           15          19      0.4667      0.1200    797.5042    671.2258     41.5261
           15          20      0.4667      0.1267    806.3667    676.8954     41.2734
           15          21      0.4667      0.1333    816.9298    684.4105     40.9834
           15          22      0.4667      0.1400    829.2420    694.3574     40.6612
           15          23      0.4667      0.1467    843.3610    707.5777     40.3132
           15          24      0.4667      0.1533    859.3541    725.2700     39.9475
           15          25      0.4667      0.1600    877.2978    749.1305     39.5743
           15          26      0.4667      0.1667    897.2789    781.5464     39.2062
           15          27      0.4667      0.1733    919.3938    825.8607     38.8588
           15          28      0.4667      0.1800    943.7498    886.7339     38.5514
           15          29      0.4667      0.1867    970.4640    970.6345     38.3074
           15          30      0.4667      0.1933    999.6631   1086.4995     38.1550
           15          31      0.4667      0.2000   1031.4804   1246.6079     38.1283
           16           1      0.5000      0.0000    929.3252    849.0395     38.7238
           16           2      0.5000      0.0067    905.0376    796.0120     39.0770
           16           3      0.5000      0.0133    883.2632    758.1199     39.4591
           16           4      0.5000      0.0200    863.8525    730.8283     39.8502
           16           5      0.5000      0.0267    846.6737    710.9914     40.2349
           16           6      0.5000      0.0333    831.6107    696.4327     40.6012
           16           7      0.5000      0.0400    818.5612    685.6514     40.9397
           16           8      0.5000      0.0467    807.4357    677.6168     41.2434
           16           9      0.5000      0.0533    798.1563    671.6247     41.5072
           16          10      0.5000      0.0600    790.6568    667.1978     41.7272
           16          11      0.5000      0.0667    784.8813    664.0157     41.9006
           16          12      0.5000      0.0733    780.7847    661.8681     42.0258
           16          13      0.5000      0.0800    778.3317    660.6228     42.1015
           16          14      0.5000      0.0867    777.4969    660.2057     42.1274
           16          15      0.5000      0.0933    778.2643    660.5890     42.1036
           16          16      0.5000      0.1000    780.6274    661.7873     42.0306
           16          17      0.5000      0.1067    784.5890    663.8595     41.9095
           16          18      0.5000      0.1133    790.1611    666.9172     41.7419
           16          19      0.5000      0.1200    797.3645    671.1406     41.5302
           16          20      0.5000      0.1267    806.2296    676.8035     41.2772
           16          21      0.5000      0.1333    816.7957    684.3095     40.9870
           16          22      0.5000      0.1400    829.1111    694.2443     40.6645
           16          23      0.5000      0.1467    843.2336    707.4489     40.3162
           16          24      0.5000      0.1533    859.2304    725.1210     39.9502
           16          25      0.5000      0.1600    877.1782    748.9560     39.5766
           16          26      0.5000      0.1667    897.1636    781.3399     39.2082
           16          27      0.5000      0.1733    919.2832    825.6145     38.8604
           16          28      0.5000      0.1800    943.6440    886.4390     38.5526
           16          29      0.5000      0.1867    970.3632    970.2805     38.3081
           16          30      0.5000      0.1933    999.5674   1086.0741     38.1554
           16          31      0.5000      0.2000   1031.3899   1246.0966     38.1282
           17           1      0.5333      0.0000    929.4699    849.3936     38.7220
           17           2      0.5333      0.0067    905.1840    796.2957     39.0747
           17           3      0.5333      0.0133    883.4110    758.3497     39.4563
           17           4      0.5333      0.0200    864.0015    731.0170     39.8470
           17           5      0.5333      0.0267    846.8237    711.1489     40.2314
           17           6      0.5333      0.0333    831.7615    696.5667     40.5974
           17           7      0.5333      0.0400    818.7126    685.7677     40.9356
           17           8      0.5333      0.0467    807.5874    677.7199     41.2392
           17           9      0.5333      0.0533    798.3081    671.7180     41.5028
           17          10      0.5333      0.0600    790.8084    667.2839     41.7227
           17          11      0.5333      0.0667    785.0326    664.0967     41.8960
           17          12      0.5333      0.0733    780.9353    661.9455     42.0211
           17          13      0.5333      0.0800    778.4814    660.6980     42.0969
           17          14      0.5333      0.0867    777.6454    660.2797     42.1228
           17          15      0.5333      0.0933    778.4114    660.6628     42.0990
           17          16      0.5333      0.1000    780.7730    661.8621     42.0261
           17          17      0.5333      0.1067    784.7327    663.9363     41.9051
           17          18      0.5333      0.1133    790.3027    666.9972     41.7377
           17          19      0.5333      0.1200    797.5038    671.2255     41.5261
           17          20      0.5333      0.1267    806.3662    676.8951     41.2734
           17          21      0.5333      0.1333    816.9293    684.4101     40.9834
           17          22      0.5333      0.1400    829.2415    694.3570     40.6612
           17          23      0.5333      0.1467    843.3606    707.5773     40.3132
           17          24      0.5333      0.1533    859.3537    725.2695     39.9475
           17          25      0.5333      0.1600    877.2974    749.1300     39.5743
           17          26      0.5333      0.1667    897.2785    781.5457     39.2062
           17          27      0.5333      0.1733    919.3935    825.8599     38.8588
           17          28      0.5333      0.1800    943.7494    886.7329     38.5514
           17          29      0.5333      0.1867    970.4636    970.6333     38.3074
           17          30      0.5333      0.1933    999.6628   1086.4981     38.1551
           17          31      0.5333      0.2000   1031.4801   1246.6061     38.1283
           18           1      0.5667      0.0000    929.9268    850.5141     38.7161
           18           2      0.5667      0.0067    905.6458    797.1937     39.0672
           18           3      0.5667      0.0133    883.8773    759.0774     39.4475
           18           4      0.5667      0.0200    864.4717    731.6148     39.8370
           18           5      0.5667      0.0267    847.2972    711.6480     40.2203
           18           6      0.5667      0.0333    832.2376    696.9912     40.5854
           18           7      0.5667      0.0400    819.1905    686.1361     40.9229
           18           8      0.5667      0.0467    808.0663    678.0463     41.2259
           18           9      0.5667      0.0533    798.7873    672.0135     41.4890
           18          10      0.5667      0.0600    791.2871    667.5566     41.7085
           18          11      0.5667      0.0667    785.5100    664.3531     41.8816
           18          12      0.5667      0.0733    781.4107    662.1907     42.0065
           18          13      0.5667      0.0800    778.9541    660.9360     42.0822
           18          14      0.5667      0.0867    778.1146    660.5140     42.1083
           18          15      0.5667      0.0933    778.8764    660.8968     42.0846
           18          16      0.5667      0.1000    781.2329    662.0989     42.0120
           18          17      0.5667      0.1067    785.1870    664.1795     41.8914
           18          18      0.5667      0.1133    790.7504    667.2509     41.7244
           18          19      0.5667      0.1200    797.9442    671.4946     41.5134
           18          20      0.5667      0.1267    806.7986    677.1858     41.2613
           18          21      0.5667      0.1333    817.3528    684.7301     40.9720
           18          22      0.5667      0.1400    829.6552    694.7155     40.6507
           18          23      0.5667      0.1467    843.7637    707.9860     40.3036
           18          24      0.5667      0.1533    859.7453    725.7428     39.9389
           18          25      0.5667      0.1600    877.6768    749.6852     39.5668
           18          26      0.5667      0.1667    897.6448    782.2038     39.1999
           18          27      0.5667      0.1733    919.7459    826.6457     38.8538
           18          28      0.5667      0.1800    944.0871    887.6758     38.5477
           18          29      0.5667      0.1867    970.7860    971.7674     38.3050
           18          30      0.5667      0.1933    999.9692   1087.8628     38.1541
           18          31      0.5667      0.2000   1031.7702   1248.2468     38.1288
           19           1      0.6000      0.0000    930.7643    852.5805     38.7054
           19           2      0.6000      0.0067    906.4924    798.8505     39.0537
           19           3      0.6000      0.0133    884.7323    760.4206     39.4314
           19           4      0.6000      0.0200    865.3340    732.7187     39.8187
           19           5      0.6000      0.0267    848.1655    712.5700     40.2001
           19           6      0.6000      0.0333    833.1106    697.7755     40.5635
           19           7      0.6000      0.0400    820.0668    686.8168     40.8996
           19           8      0.6000      0.0467    808.9445    678.6496     41.2014
           19           9      0.6000      0.0533    799.6661    672.5593     41.4637
           19          10      0.6000      0.0600    792.1651    668.0604     41.6825
           19          11      0.6000      0.0667    786.3858    664.8267     41.8551
           19          12      0.6000      0.0733    782.2830    662.6435     41.9798
           19          13      0.6000      0.0800    779.8215    661.3756     42.0554
           19          14      0.6000      0.0867    778.9758    660.9469     42.0816
           19          15      0.6000      0.0933    779.7300    661.3291     42.0583
           19          16      0.6000      0.1000    782.0777    662.5366     41.9861
           19          17      0.6000      0.1067    786.0215    664.6292     41.8661
           19          18      0.6000      0.1133    791.5734    667.7204     41.7000
           19          19      0.6000      0.1200    798.7544    671.9931     41.4899
           19          20      0.6000      0.1267    807.5947    677.7248     41.2390
           19          21      0.6000      0.1333    818.1335    685.3239     40.9511
           19          22      0.6000      0.1400    830.4194    695.3821     40.6313
           19          23      0.6000      0.1467    844.5102    708.7478     40.2859
           19          24      0.6000      0.1533    860.4730    726.6274     39.9231
           19          25      0.6000      0.1600    878.3848    750.7270     39.5530
           19          26      0.6000      0.1667    898.3321    783.4450     39.1882
           19          27      0.6000      0.1733    920.4116    828.1375     38.8444
           19          28      0.6000      0.1800    944.7306    889.4800     38.5407
           19          29      0.6000      0.1867    971.4059    973.9570     38.3006
           19          30      0.6000      0.1933   1000.5638   1090.5201     38.1523
           19          31      0.6000      0.2000   1032.3361   1251.4565     38.1296
           20           1      0.6333      0.0000    932.1038    855.9189     38.6884
           20           2      0.6333      0.0067    907.8468    801.5296     39.0322
           20           3      0.6333      0.0133    886.1002    762.5945     39.4059
           20           4      0.6333      0.0200    866.7137    734.5064     39.7896
           20           5      0.6333      0.0267    849.5550    714.0638     40.1679
           20           6      0.6333      0.0333    834.5078    699.0467     40.5287
           20           7      0.6333      0.0400    821.4695    687.9203     40.8626
           20           8      0.6333      0.0467    810.3505    679.6275     41.1625
           20           9      0.6333      0.0533    801.0732    673.4439     41.4233
           20          10      0.6333      0.0600    793.5710    668.8767     41.6410
           20          11      0.6333      0.0667    787.7884    665.5940     41.8129
           20          12      0.6333      0.0733    783.6800    663.3769     41.9371
           20          13      0.6333      0.0800    781.2108    662.0875     42.0127
           20          14      0.6333      0.0867    780.3553    661.6480     42.0390
           20          15      0.6333      0.0933    781.0976    662.0291     42.0161
           20          16      0.6333      0.1000    783.4312    663.2455     41.9447
           20          17      0.6333      0.1067    787.3590    665.3579     41.8258
           20          18      0.6333      0.1133    792.8927    668.4814     41.6610
           20          19      0.6333      0.1200    800.0537    672.8016     41.4525
           20          20      0.6333      0.1267    808.8721    678.5996     41.2035
           20          21      0.6333      0.1333    819.3875    686.2886     40.9177
           20          22      0.6333      0.1400    831.6487    696.4665     40.6002
           20          23      0.6333      0.1467    845.7139    709.9895     40.2575
           20          24      0.6333      0.1533    861.6512    728.0746     39.8975
           20          25      0.6333      0.1600    879.5382    752.4412     39.5305
           20          26      0.6333      0.1667    899.4634    785.5068     39.1690
           20          27      0.6333      0.1733    921.5256    830.6548     38.8287
           20          28      0.6333      0.1800    945.8352    892.6020     38.5288
           20          29      0.6333      0.1867    972.5143    977.9001     38.2928
           20          30      0.6333      0.1933   1001.6961   1095.6147     38.1490
           20          31      0.6333      0.2000   1033.5235   1129.1504     38.1317
           21           1      0.6667      0.0000    934.1306    861.0493     38.6633
           21           2      0.6667      0.0067    909.8967    805.6528     39.0001
           21           3      0.6667      0.0133    888.1712    765.9444     39.3677
           21           4      0.6667      0.0200    868.8030    737.2644     39.7460
           21           5      0.6667      0.0267    851.6597    716.3705     40.1196
           21           6      0.6667      0.0333    836.6246    701.0107     40.4763
           21           7      0.6667      0.0400    823.5951    689.6256     40.8068
           21           8      0.6667      0.0467    812.4815    681.1387     41.1040
           21           9      0.6667      0.0533    803.2062    674.8109     41.3625
           21          10      0.6667      0.0600    795.7026    670.1376     41.5785
           21          11      0.6667      0.0667    789.9152    666.7786     41.7492
           21          12      0.6667      0.0733    785.7987    664.5088     41.8728
           21          13      0.6667      0.0800    783.3180    663.1858     41.9482
           21          14      0.6667      0.0867    782.4476    662.7293     41.9748
           21          15      0.6667      0.0933    783.1715    663.1087     41.9526
           21          16      0.6667      0.1000    785.4834    664.3388     41.8824
           21          17      0.6667      0.1067    789.3859    666.4814     41.7650
           21          18      0.6667      0.1133    794.8910    669.6542     41.6022
           21          19      0.6667      0.1200    802.0197    674.0467     41.3963
           21          20      0.6667      0.1267    810.8024    679.9450     41.1501
           21          21      0.6667      0.1333    821.2785    687.7690     40.8676
           21          22      0.6667      0.1400    833.4970    698.1251     40.5539
           21          23      0.6667      0.1467    847.5162    711.8797     40.2152
           21          24      0.6667      0.1533    863.4042    730.2622     39.8598
           21          25      0.6667      0.1600    881.2391    755.0069     39.4977
           21          26      0.6667      0.1667    901.1096    788.5489     39.1414
           21          27      0.6667      0.1733    923.1150    834.2927     38.8067
           21          28      0.6667      0.1800    947.3663    896.9802     38.5126
           21          29      0.6667      0.1867    973.9859    983.1925     38.2826
           21          30      0.6667      0.1933   1003.1078   1102.0294     38.1451
           21          31      0.6667      0.2000   1034.8743   1123.9282     38.1342
           22           1      0.7000      0.0000    937.1101    868.7665     38.6273
           22           2      0.7000      0.0067    912.9116    811.8684     38.9540
           22           3      0.7000      0.0133    891.2182    771.0043     39.3125
           22           4      0.7000      0.0200    871.8784    741.4375     39.6828
           22           5      0.7000      0.0267    854.7590    719.8655     40.0494
           22           6      0.7000      0.0333    839.7430    703.9897     40.4001
           22           7      0.7000      0.0400    826.7277    692.2137     40.7256
           22           8      0.7000      0.0467    815.6234    683.4328     41.0186
           22           9      0.7000      0.0533    806.3521    676.8856     41.2738
           22          10      0.7000      0.0600    798.8476    672.0508     41.4872
           22          11      0.7000      0.0667    793.0542    668.5753     41.6562
           22          12      0.7000      0.0733    788.9266    666.2247     41.7788
           22          13      0.7000      0.0800    786.4296    664.8505     41.8538
           22          14      0.7000      0.0867    785.5377    664.3680     41.8807
           22          15      0.7000      0.0933    786.2350    664.7448     41.8597
           22          16      0.7000      0.1000    788.5149    665.9957     41.7911
           22          17      0.7000      0.1067    792.3800    668.1844     41.6761
           22          18      0.7000      0.1133    797.8422    671.4322     41.5163
           22          19      0.7000      0.1200    804.9224    675.9339     41.3140
           22          20      0.7000      0.1267    813.6509    681.9833     41.0721
           22          21      0.7000      0.1333    824.0671    690.0098     40.7945
           22          22      0.7000      0.1400    836.2199    700.6317     40.4863
           22          23      0.7000      0.1467    850.1677    714.7298     40.1538
           22          24      0.7000      0.1533    865.9787    733.5508     39.8051
           22          25      0.7000      0.1600    883.7314    758.8493     39.4502
           22          26      0.7000      0.1667    903.5148    793.0843     39.1018
           22          27      0.7000      0.1733    925.4292    839.6882     38.7752
           22          28      0.7000      0.1800    949.5866    903.4360     38.4897
           22          29      0.7000      0.1867    976.1109    990.9489     38.2685
           22          30      0.7000      0.1933   1005.1376   1111.3765     38.1400
           22          31      0.7000      0.2000   1036.8116   1116.4846     38.1383
           23           1      0.7333      0.0000    941.4096    880.2782     38.5775
           23           2      0.7333      0.0067    917.2651    821.1694     38.8895
           23           3      0.7333      0.0133    895.6212    778.5987     39.2348
           23           4      0.7333      0.0200    876.3253    747.7175     39.5935
           23           5      0.7333      0.0267    859.2436    725.1369     39.9499
           23           6      0.7333      0.0333    844.2584    708.4902     40.2919
           23           7      0.7333      0.0400    831.2668    696.1280     40.6098
           23           8      0.7333      0.0467    820.1788    686.9043     40.8967
           23           9      0.7333      0.0533    810.9165    680.0254     41.1469
           23          10      0.7333      0.0600    803.4133    674.9453     41.3566
           23          11      0.7333      0.0667    797.6137    671.2926     41.5229
           23          12      0.7333      0.0733    793.4724    668.8191     41.6439
           23          13      0.7333      0.0800    790.9539    667.3667     41.7183
           23          14      0.7333      0.0867    790.0328    666.8449     41.7457
           23          15      0.7333      0.0933    790.6930    667.2184     41.7261
           23          16      0.7333      0.1000    792.9278    668.5018     41.6599
           23          17      0.7333      0.1067    796.7396    670.7614     41.5483
           23          18      0.7333      0.1133    802.1401    674.1238     41.3928
           23          19      0.7333      0.1200    809.1503    678.7917     41.1957
           23          20      0.7333      0.1267    817.8000    685.0696     40.9600
           23          21      0.7333      0.1333    828.1288    693.4008     40.6896
           23          22      0.7333      0.1400    840.1853    704.4206     40.3894
           23          23      0.7333      0.1467    854.0282    719.0307     40.0659
           23          24      0.7333      0.1533    869.7259    738.5024     39.7269
           23          25      0.7333      0.1600    887.3574    764.6195     39.3826
           23          26      0.7333      0.1667    907.0125    799.8749     39.0454
           23          27      0.7333      0.1733    928.7926    847.7411     38.7307
           23          28      0.7333      0.1800    952.8114    913.0405     38.4576
           23          29      0.7333      0.1867    979.1952   1002.4519     38.2492
           23          30      0.7333      0.1933   1008.0821   1125.1973     38.1337
           23          31      0.7333      0.2000   1039.6204   1105.7901     38.1452
           24           1      0.7667      0.0000    947.5288    897.4485     38.5109
           24           2      0.7667      0.0067    923.4671    835.1062     38.8019
           24           3      0.7667      0.0133    901.9003    790.0279     39.1283
           24           4      0.7667      0.0200    882.6737    757.2065     39.4703
           24           5      0.7667      0.0267    865.6525    733.1290     39.8120
           24           6      0.7667      0.0333    850.7182    715.3320     40.1412
           24           7      0.7667      0.0400    837.7672    702.0903     40.4483
           24           8      0.7667      0.0467    826.7092    692.1981     40.7260
           24           9      0.7667      0.0533    817.4660    684.8158     40.9690
           24          10      0.7667      0.0600    809.9709    679.3620     41.1730
           24          11      0.7667      0.0667    804.1682    675.4379     41.3353
           24          12      0.7667      0.0733    800.0124    672.7758     41.4537
           24          13      0.7667      0.0800    797.4681    671.2037     41.5272
           24          14      0.7667      0.0867    796.5094    670.6223     41.5550
           24          15      0.7667      0.0933    797.1201    670.9920     41.5372
           24          16      0.7667      0.1000    799.2933    672.3271     41.4744
           24          17      0.7667      0.1067    803.0313    674.6976     41.3675
           24          18      0.7667      0.1133    808.3454    678.2374     41.2181
           24          19      0.7667      0.1200    815.2563    683.1607     41.0285
           24          20      0.7667      0.1267    823.7939    689.7871     40.8016
           24          21      0.7667      0.1333    833.9973    698.5800     40.5414
           24          22      0.7667      0.1400    845.9154    710.1989     40.2527
           24          23      0.7667      0.1467    859.6069    725.5753     39.9420
           24          24      0.7667      0.1533    875.1406    746.0156     39.6170
           24          25      0.7667      0.1600    892.5964    773.3450     39.2879
           24          26      0.7667      0.1667    912.0651    810.1048     38.9668
           24          27      0.7667      0.1733    933.6500    859.8241     38.6692
           24          28      0.7667      0.1800    957.4671    927.3929     38.4138
           24          29      0.7667      0.1867    983.6460   1019.5718     38.2236
           24          30      0.7667      0.1933   1012.3288   1145.6858     38.1268
           24          31      0.7667      0.2000   1043.6687   1090.5803     38.1572
           25           1      0.8000      0.0000    956.1443    923.2555     38.4259
           25           2      0.8000      0.0067    932.2119    856.1902     38.6871
           25           3      0.8000      0.0133    910.7668    807.4279     38.9867
           25           4      0.8000      0.0200    891.6520    771.7375     39.3047
           25           5      0.8000      0.0267    874.7305    745.4313     39.6252
           25           6      0.8000      0.0333    859.8824    725.9089     39.9360
           25           7      0.8000      0.0400    847.0030    711.3377     40.2272
           25           8      0.8000      0.0467    836.0013    700.4276     40.4917
           25           9      0.8000      0.0533    826.7984    692.2731     40.7237
           25          10      0.8000      0.0600    819.3273    686.2420     40.9193
           25          11      0.8000      0.0667    813.5318    681.8968     41.0753
           25          12      0.8000      0.0733    809.3662    678.9413     41.1897
           25          13      0.8000      0.0800    806.7948    677.1832     41.2614
           25          14      0.8000      0.0867    805.7913    676.5105     41.2895
           25          15      0.8000      0.0933    806.3394    676.8770     41.2741
           25          16      0.8000      0.1000    808.4316    678.2966     41.2157
           25          17      0.8000      0.1067    812.0700    680.8441     41.1152
           25          18      0.8000      0.1133    817.2656    684.6641     40.9743
           25          19      0.8000      0.1200    824.0387    689.9866     40.7952
           25          20      0.8000      0.1267    832.4190    697.1535     40.5808
           25          21      0.8000      0.1333    842.4455    706.6561     40.3350
           25          22      0.8000      0.1400    854.1671    719.1889     40.0627
           25          23      0.8000      0.1467    867.6428    735.7252     39.7702
           25          24      0.8000      0.1533    882.9420    757.6215     39.4652
           25          25      0.8000      0.1600    900.1456    786.7615     39.1576
           25          26      0.8000      0.1667    919.3463    825.7549     38.8595
           25          27      0.8000      0.1733    940.6497    878.2107     38.5861
           25          28      0.8000      0.1800    964.1752    949.1137     38.3559
           25          29      0.8000      0.1867    990.0566   1045.3396     38.1918
           25          30      0.8000      0.1933   1018.4420   1176.3567     38.1215
           25          31      0.8000      0.2000   1049.4909   1069.1318     38.1787
           26           1      0.8333      0.0000    968.1873    962.7115     38.3243
           26           2      0.8333      0.0067    944.4608    888.7224     38.5436
           26           3      0.8333      0.0133    923.2128    834.5185     38.8054
           26           4      0.8333      0.0200    904.2824    794.5545     39.0893
           26           5      0.8333      0.0267    887.5290    764.8980     39.3795
           26           6      0.8333      0.0333    872.8302    742.7569     39.6635
           26           7      0.8333      0.0400    860.0791    726.1477     39.9317
           26           8      0.8333      0.0467    849.1830    713.6617     40.1765
           26           9      0.8333      0.0533    840.0622    704.3005     40.3924
           26          10      0.8333      0.0600    832.6487    697.3596     40.5751
           26          11      0.8333      0.0667    826.8855    692.3465     40.7215
           26          12      0.8333      0.0733    822.7263    688.9237     40.8295
           26          13      0.8333      0.0800    820.1349    686.8700     40.8978
           26          14      0.8333      0.0867    819.0848    686.0545     40.9257
           26          15      0.8333      0.0933    819.5588    686.4214     40.9131
           26          16      0.8333      0.1000    821.5494    687.9836     40.8605
           26          17      0.8333      0.1067    825.0579    690.8229     40.7687
           26          18      0.8333      0.1133    830.0953    695.0987     40.6395
           26          19      0.8333      0.1200    836.6816    701.0643     40.4749
           26          20      0.8333      0.1267    844.8462    709.0927     40.2779
           26          21      0.8333      0.1333    854.6284    719.7159     40.0524
           26          22      0.8333      0.1400    866.0772    733.6784     39.8030
           26          23      0.8333      0.1467    879.2525    752.0146     39.5361
           26          24      0.8333      0.1533    894.2248    776.1533     39.2591
           26          25      0.8333      0.1600    911.0767    808.0639     38.9819
           26          26      0.8333      0.1667    929.9035    850.4568     38.7164
           26          27      0.8333      0.1733    950.8139    907.0593     38.4773
           26          28      0.8333      0.1800    973.9314    982.9950     38.2830
           26          29      0.8333      0.1867    999.3938   1085.3028     38.1559
           26          30      0.8333      0.1933   1027.3532   1223.6404     38.1235
           26          31      0.8333      0.2000   1057.9716   1038.8022     38.2190
           27           1      0.8667      0.0000    985.0056   1024.9261     38.2164
           27           2      0.8667      0.0067    961.6159    940.6791     38.3773
           27           3      0.8667      0.0133    940.6948    878.3330     38.5856
           27           4      0.8667      0.0200    922.0742    831.9043     38.8211
           27           5      0.8667      0.0267    905.6079    797.1198     39.0679
           27           6      0.8667      0.0333    891.1687    770.9208     39.3134
           27           7      0.8667      0.0400    878.6461    751.1136     39.5479
           27           8      0.8667      0.0467    867.9449    736.1242     39.7639
           27           9      0.8667      0.0533    858.9830    724.8235     39.9556
           27          10      0.8667      0.0600    851.6910    716.4052     40.1189
           27          11      0.8667      0.0667    846.0108    710.2983     40.2505
           27          12      0.8667      0.0733    841.8952    706.1066     40.3482
           27          13      0.8667      0.0800    839.3070    703.5670     40.4107
           27          14      0.8667      0.0867    838.2193    702.5212     40.4372
           27          15      0.8667      0.0933    838.6144    702.8996     40.4276
           27          16      0.8667      0.1000    840.4844    704.7132     40.3822
           27          17      0.8667      0.1067    843.8305    708.0539     40.3020
           27          18      0.8667      0.1133    848.6634    713.1027     40.1886
           27          19      0.8667      0.1200    855.0035    720.1464     40.0439
           27          20      0.8667      0.1267    862.8809    729.6048     39.8710
           27          21      0.8667      0.1333    872.3358    742.0699     39.6735
           27          22      0.8667      0.1400    883.4192    758.3626     39.4561
           27          23      0.8667      0.1467    896.1938    779.6112     39.2249
           27          24      0.8667      0.1533    910.7342    807.3612     38.9872
           27          25      0.8667      0.1600    927.1292    843.7267     38.7525
           27          26      0.8667      0.1667    945.4822    891.6010     38.5326
           27          27      0.8667      0.1733    965.9138    954.9494     38.3420
           27          28      0.8667      0.1800    988.5631   1039.2172     38.1987
           27          29      0.8667      0.1867   1013.5900   1151.8982     38.1253
           27          30      0.8667      0.1933   1041.1760   1099.9169     38.1495
           27          31      0.8667      0.2000   1071.0527    994.1862     38.3021
           28           1      0.9000      0.0000   1008.7975   1128.6027     38.1324
           28           2      0.9000      0.0067    985.9748   1028.7791     38.2114
           28           3      0.9000      0.0133    965.5981    953.8835     38.3445
           28           4      0.9000      0.0200    947.4918    897.3417     38.5113
           28           5      0.9000      0.0267    931.5025    854.4152     38.6960
           28           6      0.9000      0.0333    917.4976    821.6773     38.8861
           28           7      0.9000      0.0400    905.3623    796.6419     39.0718
           28           8      0.9000      0.0467    894.9973    777.5018     39.2456
           28           9      0.9000      0.0533    886.3179    762.9433     39.4018
           28          10      0.9000      0.0600    879.2524    752.0145     39.5361
           28          11      0.9000      0.0667    873.7408    744.0318     39.6451
           28          12      0.9000      0.0733    869.7346    738.5141     39.7268
           28          13      0.9000      0.0800    867.1956    735.1371     39.7795
           28          14      0.9000      0.0867    866.0961    733.7029     39.8026
           28          15      0.9000      0.0933    866.4181    734.1212     39.7958
           28          16      0.9000      0.1000    868.1534    736.4002     39.7595
           28          17      0.9000      0.1067    871.3033    740.6468     39.6945
           28          18      0.9000      0.1133    875.8792    747.0742     39.6023
           28          19      0.9000      0.1200    881.9025    756.0199     39.4850
           28          20      0.9000      0.1267    889.4049    767.9742     39.3452
           28          21      0.9000      0.1333    898.4294    783.6216     39.1865
           28          22      0.9000      0.1400    909.0308    803.9011     39.0136
           28          23      0.9000      0.1467    921.2769    830.0905     38.8322
           28          24      0.9000      0.1533    935.2496    863.9231     38.6496
           28          25      0.9000      0.1600    951.0472    907.7523     38.4750
           28          26      0.9000      0.1667    968.7861    964.7806     38.3198
           28          27      0.9000      0.1733    988.6044   1039.3854     38.1985
           28          28      0.9000      0.1800   1010.6643   1137.5761     38.1292
           28          29      0.9000      0.1867   1035.1544   1122.8485     38.1347
           28          30      0.9000      0.1933   1061.9504   1024.9509     38.2416
           28          31      0.9000      0.2000   1090.6724    932.3492     38.4745
           29           1      0.9333      0.0000   1044.2775   1088.3139     38.1592
           29           2      0.9333      0.0067   1022.2297   1196.0750     38.1209
           29           3      0.9333      0.0133   1002.6118   1099.7676     38.1464
           29           4      0.9333      0.0200    985.2186   1025.7705     38.2153
           29           5      0.9333      0.0267    969.8894    968.6205     38.3116
           29           6      0.9333      0.0333    956.4947    924.3470     38.4227
           29           7      0.9333      0.0400    944.9156    890.0008     38.5387
           29           8      0.9333      0.0467    935.0463    863.3988     38.6521
           29           9      0.9333      0.0533    926.7955    842.9289     38.7570
           29          10      0.9333      0.0600    920.0857    827.4060     38.8490
           29          11      0.9333      0.0667    914.8526    815.9672     38.9249
           29          12      0.9333      0.0733    911.0443    807.9972     38.9824
           29          13      0.9333      0.0800    908.6203    803.0757     39.0200
           29          14      0.9333      0.0867    907.5514    800.9422     39.0369
           29          15      0.9333      0.0933    907.8190    801.4742     39.0326
           29          16      0.9333      0.1000    909.4149    804.6763     39.0076
           29          17      0.9333      0.1067    912.3417    810.6795     38.9626
           29          18      0.9333      0.1133    916.6125    819.7503     38.8990
           29          19      0.9333      0.1200    922.2520    832.3108     38.8186
           29          20      0.9333      0.1267    929.2969    848.9705     38.7242
           29          21      0.9333      0.1333    937.7970    870.5759     38.6192
           29          22      0.9333      0.1400    947.8166    898.2792     38.5079
           29          23      0.9333      0.1467    959.4355    933.6372     38.3962
           29          24      0.9333      0.1533    972.7510    978.7470     38.2911
           29          25      0.9333      0.1600    987.8780   1036.4333     38.2020
           29          26      0.9333      0.1667   1004.9486   1110.4997     38.1405
           29          27      0.9333      0.1733   1024.1383   1206.2227     38.1214
           29          28      0.9333      0.1800   1045.6861   1083.0913     38.1641
           29          29      0.9333      0.1867   1069.2508   1000.1737     38.2891
           29          30      0.9333      0.1933   1094.5605    920.8381     38.5155
           29          31      0.9333      0.2000   1121.2894    848.6017     38.8590
           30           1      0.9667      0.0000   1101.1213    901.9838     38.5899
           30           2      0.9667      0.0067   1080.9241    962.2989     38.3816
           30           3      0.9667      0.0133   1062.2667   1023.8602     38.2435
           30           4      0.9667      0.0200   1045.3084   1084.4886     38.1628
           30           5      0.9667      0.0267   1030.1583   1239.1752     38.1265
           30           6      0.9667      0.0333   1017.1817   1169.9179     38.1222
           30           7      0.9667      0.0400   1006.1194   1115.9503     38.1378
           30           8      0.9667      0.0467    996.7829   1073.8303     38.1647
           30           9      0.9667      0.0533    989.0318   1041.1307     38.1965
           30          10      0.9667      0.0600    982.7598   1016.1135     38.2285
           30          11      0.9667      0.0667    977.8850    997.5301     38.2572
           30          12      0.9667      0.0733    974.3452    984.4942     38.2802
           30          13      0.9667      0.0800    972.0936    976.3994     38.2957
           30          14      0.9667      0.0867    971.0977    972.8671     38.3028
           30          15      0.9667      0.0933    971.3374    973.7144     38.3011
           30          16      0.9667      0.1000    972.8047    978.9394     38.2907
           30          17      0.9667      0.1067    975.5038    988.7191     38.2725
           30          18      0.9667      0.1133    979.4519   1003.4228     38.2476
           30          19      0.9667      0.1200    984.6804   1023.6403     38.2181
           30          20      0.9667      0.1267    991.2374   1050.2315     38.1866
           30          21      0.9667      0.1333    999.1915   1084.4053     38.1565
           30          22      0.9667      0.1400   1008.6386   1127.8447     38.1327
           30          23      0.9667      0.1467   1019.7126   1182.9094     38.1211
           30          24      0.9667      0.1533   1032.6008   1252.9623     38.1301
           30          25      0.9667      0.1600   1047.5690   1076.1560     38.1711
           30          26      0.9667      0.1667   1064.2268   1017.1358     38.2556
           30          27      0.9667      0.1733   1082.5054    957.3359     38.3957
           30          28      0.9667      0.1800   1102.2956    898.6852     38.6039
           30          29      0.9667      0.1867   1123.4264    843.3581     38.8911
           30          30      0.9667      0.1933   1145.6874    793.5884     39.2665
           30          31      0.9667      0.2000   1168.8463    751.5098     39.7364
           31           1      1.0000      0.0000   1184.6217    728.7410     40.1027
           31           2      1.0000      0.0067   1168.5462    751.9899     39.7297
           31           3      1.0000      0.0133   1153.5100    778.2468     39.4161
           31           4      1.0000      0.0200   1139.6257    806.2529     39.1568
           31           5      1.0000      0.0267   1126.9905    834.7923     38.9462
           31           6      1.0000      0.0333   1115.6816    862.7412     38.7780
           31           7      1.0000      0.0400   1105.7302    889.1711     38.6460
           31           8      1.0000      0.0467   1097.1414    913.3355     38.5440
           31           9      1.0000      0.0533   1089.9074    934.6436     38.4667
           31          10      1.0000      0.0600   1083.9999    952.6825     38.4094
           31          11      1.0000      0.0667   1079.3823    967.1770     38.3683
           31          12      1.0000      0.0733   1076.0177    977.9538     38.3403
           31          13      1.0000      0.0800   1073.8737    984.9154     38.3233
           31          14      1.0000      0.0867   1072.9245    988.0208     38.3160
           31          15      1.0000      0.0933   1073.1527    987.2730     38.3178
           31          16      1.0000      0.1000   1074.5497    982.7126     38.3286
           31          17      1.0000      0.1067   1077.1160    974.4161     38.3492
           31          18      1.0000      0.1133   1080.8603    962.4999     38.3811
           31          19      1.0000      0.1200   1085.7984    947.1302     38.4263
           31          20      1.0000      0.1267   1091.9501    928.5390     38.4877
           31          21      1.0000      0.1333   1099.3340    907.0488     38.5690
           31          22      1.0000      0.1400   1107.9587    883.1050     38.6743
           31          23      1.0000      0.1467   1117.8300    857.2595     38.8085
           31          24      1.0000      0.1533   1128.9425    830.1966     38.9771
           31          25      1.0000      0.1600   1141.2668    802.7577     39.1860
           31          26      1.0000      0.1667   1154.7291    775.9586     39.4403
           31          27      1.0000      0.1733   1169.2373    750.8867     39.7450
           31          28      1.0000      0.1800   1184.6816    728.6640     40.1042
           31          29      1.0000      0.1867   1200.9367    703.0000     40.5209
           31          30      1.0000      0.1933   1217.8523    703.0000     40.9966
           31          31      1.0000      0.2000   1235.3229    703.0000     41.5326
