 ====================================================================================
               Transient state solution for a 2D rectangular plate
                    for applications in steel reheating
                 e.g. Reheating furnaces for rolling processing
 ====================================================================================
 Author: Dickson Alves de Souza

 Based on lectures by professor Roberto Parreiras Tavares

 and book Numerical Heat Transfer and Fluid Flow
 by Suhas V. Patankar (1980)

 Federal University of Minas Gerais (UFMG)
 October 26th, 2017
 ====================================================================================
                              Input parameters:

 Lenght in X direction (meters):           1.0000
 Lenght in Y direction (meters):           0.2000
 Nodes in X direction:                         31
 Nodes in Y direction:                         31
 ====================================================================================

                       STAGE                1/  5
                       START Time:         0.0000
                       END Time:        1140.0000
                       Iterations:             2101

 ====================================================================================
 Temperature of fluid at left face (T left):             1223.1500
 Temperature of fluid at right face (T right):           1223.1500
 Temperature of fluid at bottom face (T bottom):         1223.1500
 Temperature of fluid at top face (T top):               1223.1500
 ------------------------------------------------------------------------------------
 Heat transfer coefficient at left face (H left):          50.0000
 Heat transfer coefficient at right face (H right):        50.0000
 Heat transfer coefficient at bottom face (H bottom):       8.0000
 Heat transfer coefficient at top face (H top):           150.0000
 ====================================================================================


 ====================================================================================

                       STAGE                2/  5
                       START Time:      1140.0000
                       END Time:        3060.0000
                       Iterations:             2101

 ====================================================================================
 Temperature of fluid at left face (T left):             1423.1500
 Temperature of fluid at right face (T right):           1423.1500
 Temperature of fluid at bottom face (T bottom):         1423.1500
 Temperature of fluid at top face (T top):               1423.1500
 ------------------------------------------------------------------------------------
 Heat transfer coefficient at left face (H left):          50.0000
 Heat transfer coefficient at right face (H right):        50.0000
 Heat transfer coefficient at bottom face (H bottom):       8.0000
 Heat transfer coefficient at top face (H top):           150.0000
 ====================================================================================


 ====================================================================================

                       STAGE                3/  5
                       START Time:      3060.0000
                       END Time:        4980.0000
                       Iterations:             2101

 ====================================================================================
 Temperature of fluid at left face (T left):             1513.1500
 Temperature of fluid at right face (T right):           1513.1500
 Temperature of fluid at bottom face (T bottom):         1513.1500
 Temperature of fluid at top face (T top):               1513.1500
 ------------------------------------------------------------------------------------
 Heat transfer coefficient at left face (H left):          50.0000
 Heat transfer coefficient at right face (H right):        50.0000
 Heat transfer coefficient at bottom face (H bottom):       8.0000
 Heat transfer coefficient at top face (H top):           150.0000
 ====================================================================================


 ====================================================================================

                       STAGE                4/  5
                       START Time:      4980.0000
                       END Time:        8400.0000
                       Iterations:             2101

 ====================================================================================
 Temperature of fluid at left face (T left):             1503.1500
 Temperature of fluid at right face (T right):           1503.1500
 Temperature of fluid at bottom face (T bottom):         1503.1500
 Temperature of fluid at top face (T top):               1523.1500
 ------------------------------------------------------------------------------------
 Heat transfer coefficient at left face (H left):          50.0000
 Heat transfer coefficient at right face (H right):        50.0000
 Heat transfer coefficient at bottom face (H bottom):       8.0000
 Heat transfer coefficient at top face (H top):           150.0000
 ====================================================================================


 ====================================================================================

                       STAGE                5/  5
                       START Time:      8400.0000
                       END Time:       18400.0000
                       Iterations:             2101

 ====================================================================================
 Temperature of fluid at left face (T left):             1393.1500
 Temperature of fluid at right face (T right):           1393.1500
 Temperature of fluid at bottom face (T bottom):         1393.1500
 Temperature of fluid at top face (T top):               1433.1500
 ------------------------------------------------------------------------------------
 Heat transfer coefficient at left face (H left):          50.0000
 Heat transfer coefficient at right face (H right):        50.0000
 Heat transfer coefficient at bottom face (H bottom):       8.0000
 Heat transfer coefficient at top face (H top):           150.0000
 ====================================================================================


 SOLUTION of LINEAR SYSTEM: TDMA (tri-diagonal matrix algorithm)
      ADI approach employed in solution.
 Tolerance:       0.0010

 ====================================================================================
                    Calculation Results
 Current time:    14800.000000000000       seconds
 Maximum Temperature :    1425.7809714875043
 Minimum Temperature :    1397.1005866941268
 Average(algebraic, non-weigthed) Temperature :    1412.3852343178798
 ====================================================================================
            I           J        X(m)        Y(m)        T(K)  Cp(J/kg.K) K(W/sq-m.K)
 ====================================================================================
            1           1      0.0000      0.0000   1397.1006    703.0000     48.5704
            1           2      0.0000      0.0067   1397.3814    703.0000     48.5857
            1           3      0.0000      0.0133   1397.6679    703.0000     48.6014
            1           4      0.0000      0.0200   1397.9605    703.0000     48.6173
            1           5      0.0000      0.0267   1398.2598    703.0000     48.6337
            1           6      0.0000      0.0333   1398.5662    703.0000     48.6504
            1           7      0.0000      0.0400   1398.8804    703.0000     48.6676
            1           8      0.0000      0.0467   1399.2031    703.0000     48.6853
            1           9      0.0000      0.0533   1399.5350    703.0000     48.7035
            1          10      0.0000      0.0600   1399.8771    703.0000     48.7222
            1          11      0.0000      0.0667   1400.2304    703.0000     48.7416
            1          12      0.0000      0.0733   1400.5958    703.0000     48.7616
            1          13      0.0000      0.0800   1400.9747    703.0000     48.7825
            1          14      0.0000      0.0867   1401.3685    703.0000     48.8041
            1          15      0.0000      0.0933   1401.7789    703.0000     48.8267
            1          16      0.0000      0.1000   1402.2076    703.0000     48.8503
            1          17      0.0000      0.1067   1402.6569    703.0000     48.8751
            1          18      0.0000      0.1133   1403.1292    703.0000     48.9012
            1          19      0.0000      0.1200   1403.6275    703.0000     48.9287
            1          20      0.0000      0.1267   1404.1553    703.0000     48.9580
            1          21      0.0000      0.1333   1404.7169    703.0000     48.9891
            1          22      0.0000      0.1400   1405.3173    703.0000     49.0224
            1          23      0.0000      0.1467   1405.9628    703.0000     49.0582
            1          24      0.0000      0.1533   1406.6612    703.0000     49.0971
            1          25      0.0000      0.1600   1407.4222    703.0000     49.1395
            1          26      0.0000      0.1667   1408.2583    703.0000     49.1862
            1          27      0.0000      0.1733   1409.1858    703.0000     49.2381
            1          28      0.0000      0.1800   1410.2258    703.0000     49.2964
            1          29      0.0000      0.1867   1411.4062    703.0000     49.3628
            1          30      0.0000      0.1933   1412.7648    703.0000     49.4394
            1          31      0.0000      0.2000   1414.3526    703.0000     49.5291
            2           1      0.0333      0.0000   1398.5282    703.0000     48.6484
            2           2      0.0333      0.0067   1398.9102    703.0000     48.6692
            2           3      0.0333      0.0133   1399.2995    703.0000     48.6906
            2           4      0.0333      0.0200   1399.6965    703.0000     48.7123
            2           5      0.0333      0.0267   1400.1020    703.0000     48.7345
            2           6      0.0333      0.0333   1400.5165    703.0000     48.7573
            2           7      0.0333      0.0400   1400.9408    703.0000     48.7806
            2           8      0.0333      0.0467   1401.3759    703.0000     48.8045
            2           9      0.0333      0.0533   1401.8225    703.0000     48.8291
            2          10      0.0333      0.0600   1402.2818    703.0000     48.8544
            2          11      0.0333      0.0667   1402.7549    703.0000     48.8805
            2          12      0.0333      0.0733   1403.2431    703.0000     48.9075
            2          13      0.0333      0.0800   1403.7477    703.0000     48.9354
            2          14      0.0333      0.0867   1404.2703    703.0000     48.9643
            2          15      0.0333      0.0933   1404.8126    703.0000     48.9944
            2          16      0.0333      0.1000   1405.3767    703.0000     49.0257
            2          17      0.0333      0.1067   1405.9645    703.0000     49.0583
            2          18      0.0333      0.1133   1406.5787    703.0000     49.0925
            2          19      0.0333      0.1200   1407.2217    703.0000     49.1283
            2          20      0.0333      0.1267   1407.8966    703.0000     49.1660
            2          21      0.0333      0.1333   1408.6068    703.0000     49.2057
            2          22      0.0333      0.1400   1409.3559    703.0000     49.2476
            2          23      0.0333      0.1467   1410.1480    703.0000     49.2921
            2          24      0.0333      0.1533   1410.9876    703.0000     49.3392
            2          25      0.0333      0.1600   1411.8795    703.0000     49.3894
            2          26      0.0333      0.1667   1412.8289    703.0000     49.4430
            2          27      0.0333      0.1733   1413.8411    703.0000     49.5002
            2          28      0.0333      0.1800   1414.9212    703.0000     49.5614
            2          29      0.0333      0.1867   1416.0740    703.0000     49.6268
            2          30      0.0333      0.1933   1417.3028    703.0000     49.6968
            2          31      0.0333      0.2000   1418.6084    703.0000     49.7714
            3           1      0.0667      0.0000   1399.7563    703.0000     48.7156
            3           2      0.0667      0.0067   1400.2248    703.0000     48.7413
            3           3      0.0667      0.0133   1400.7008    703.0000     48.7674
            3           4      0.0667      0.0200   1401.1847    703.0000     48.7940
            3           5      0.0667      0.0267   1401.6772    703.0000     48.8211
            3           6      0.0667      0.0333   1402.1789    703.0000     48.8488
            3           7      0.0667      0.0400   1402.6906    703.0000     48.8770
            3           8      0.0667      0.0467   1403.2130    703.0000     48.9058
            3           9      0.0667      0.0533   1403.7469    703.0000     48.9354
            3          10      0.0667      0.0600   1404.2933    703.0000     48.9656
            3          11      0.0667      0.0667   1404.8531    703.0000     48.9966
            3          12      0.0667      0.0733   1405.4274    703.0000     49.0285
            3          13      0.0667      0.0800   1406.0173    703.0000     49.0613
            3          14      0.0667      0.0867   1406.6239    703.0000     49.0950
            3          15      0.0667      0.0933   1407.2487    703.0000     49.1299
            3          16      0.0667      0.1000   1407.8929    703.0000     49.1658
            3          17      0.0667      0.1067   1408.5580    703.0000     49.2030
            3          18      0.0667      0.1133   1409.2456    703.0000     49.2415
            3          19      0.0667      0.1200   1409.9573    703.0000     49.2814
            3          20      0.0667      0.1267   1410.6947    703.0000     49.3228
            3          21      0.0667      0.1333   1411.4597    703.0000     49.3658
            3          22      0.0667      0.1400   1412.2538    703.0000     49.4105
            3          23      0.0667      0.1467   1413.0790    703.0000     49.4571
            3          24      0.0667      0.1533   1413.9368    703.0000     49.5056
            3          25      0.0667      0.1600   1414.8288    703.0000     49.5561
            3          26      0.0667      0.1667   1415.7564    703.0000     49.6088
            3          27      0.0667      0.1733   1416.7205    703.0000     49.6636
            3          28      0.0667      0.1800   1417.7218    703.0000     49.7207
            3          29      0.0667      0.1867   1418.7603    703.0000     49.7800
            3          30      0.0667      0.1933   1419.8352    703.0000     49.8416
            3          31      0.0667      0.2000   1420.9449    703.0000     49.9053
            4           1      0.1000      0.0000   1400.7731    703.0000     48.7714
            4           2      0.1000      0.0067   1401.3128    703.0000     48.8011
            4           3      0.1000      0.0133   1401.8591    703.0000     48.8311
            4           4      0.1000      0.0200   1402.4124    703.0000     48.8616
            4           5      0.1000      0.0267   1402.9734    703.0000     48.8926
            4           6      0.1000      0.0333   1403.5424    703.0000     48.9240
            4           7      0.1000      0.0400   1404.1202    703.0000     48.9560
            4           8      0.1000      0.0467   1404.7072    703.0000     48.9885
            4           9      0.1000      0.0533   1405.3042    703.0000     49.0217
            4          10      0.1000      0.0600   1405.9118    703.0000     49.0554
            4          11      0.1000      0.0667   1406.5307    703.0000     49.0898
            4          12      0.1000      0.0733   1407.1617    703.0000     49.1250
            4          13      0.1000      0.0800   1407.8054    703.0000     49.1609
            4          14      0.1000      0.0867   1408.4628    703.0000     49.1976
            4          15      0.1000      0.0933   1409.1346    703.0000     49.2352
            4          16      0.1000      0.1000   1409.8215    703.0000     49.2737
            4          17      0.1000      0.1067   1410.5246    703.0000     49.3132
            4          18      0.1000      0.1133   1411.2445    703.0000     49.3537
            4          19      0.1000      0.1200   1411.9822    703.0000     49.3952
            4          20      0.1000      0.1267   1412.7384    703.0000     49.4379
            4          21      0.1000      0.1333   1413.5138    703.0000     49.4817
            4          22      0.1000      0.1400   1414.3092    703.0000     49.5267
            4          23      0.1000      0.1467   1415.1252    703.0000     49.5729
            4          24      0.1000      0.1533   1415.9623    703.0000     49.6205
            4          25      0.1000      0.1600   1416.8207    703.0000     49.6693
            4          26      0.1000      0.1667   1417.7007    703.0000     49.7195
            4          27      0.1000      0.1733   1418.6022    703.0000     49.7710
            4          28      0.1000      0.1800   1419.5248    703.0000     49.8238
            4          29      0.1000      0.1867   1420.4681    703.0000     49.8779
            4          30      0.1000      0.1933   1421.4311    703.0000     49.9332
            4          31      0.1000      0.2000   1422.4125    703.0000     49.9897
            5           1      0.1333      0.0000   1401.5906    703.0000     48.8164
            5           2      0.1333      0.0067   1402.1872    703.0000     48.8492
            5           3      0.1333      0.0133   1402.7890    703.0000     48.8824
            5           4      0.1333      0.0200   1403.3964    703.0000     48.9160
            5           5      0.1333      0.0267   1404.0098    703.0000     48.9499
            5           6      0.1333      0.0333   1404.6295    703.0000     48.9842
            5           7      0.1333      0.0400   1405.2561    703.0000     49.0190
            5           8      0.1333      0.0467   1405.8899    703.0000     49.0542
            5           9      0.1333      0.0533   1406.5314    703.0000     49.0899
            5          10      0.1333      0.0600   1407.1811    703.0000     49.1261
            5          11      0.1333      0.0667   1407.8393    703.0000     49.1628
            5          12      0.1333      0.0733   1408.5067    703.0000     49.2001
            5          13      0.1333      0.0800   1409.1835    703.0000     49.2380
            5          14      0.1333      0.0867   1409.8704    703.0000     49.2765
            5          15      0.1333      0.0933   1410.5678    703.0000     49.3156
            5          16      0.1333      0.1000   1411.2761    703.0000     49.3555
            5          17      0.1333      0.1067   1411.9958    703.0000     49.3960
            5          18      0.1333      0.1133   1412.7274    703.0000     49.4372
            5          19      0.1333      0.1200   1413.4710    703.0000     49.4793
            5          20      0.1333      0.1267   1414.2273    703.0000     49.5220
            5          21      0.1333      0.1333   1414.9963    703.0000     49.5656
            5          22      0.1333      0.1400   1415.7784    703.0000     49.6100
            5          23      0.1333      0.1467   1416.5737    703.0000     49.6553
            5          24      0.1333      0.1533   1417.3823    703.0000     49.7013
            5          25      0.1333      0.1600   1418.2041    703.0000     49.7482
            5          26      0.1333      0.1667   1419.0390    703.0000     49.7960
            5          27      0.1333      0.1733   1419.8868    703.0000     49.8445
            5          28      0.1333      0.1800   1420.7471    703.0000     49.8939
            5          29      0.1333      0.1867   1421.6194    703.0000     49.9441
            5          30      0.1333      0.1933   1422.5029    703.0000     49.9950
            5          31      0.1333      0.2000   1423.3970    703.0000     50.0466
            6           1      0.1667      0.0000   1402.2341    703.0000     48.8518
            6           2      0.1667      0.0067   1402.8752    703.0000     48.8872
            6           3      0.1667      0.0133   1403.5200    703.0000     48.9228
            6           4      0.1667      0.0200   1404.1688    703.0000     48.9587
            6           5      0.1667      0.0267   1404.8218    703.0000     48.9949
            6           6      0.1667      0.0333   1405.4793    703.0000     49.0314
            6           7      0.1667      0.0400   1406.1417    703.0000     49.0682
            6           8      0.1667      0.0467   1406.8091    703.0000     49.1054
            6           9      0.1667      0.0533   1407.4819    703.0000     49.1429
            6          10      0.1667      0.0600   1408.1604    703.0000     49.1807
            6          11      0.1667      0.0667   1408.8449    703.0000     49.2190
            6          12      0.1667      0.0733   1409.5356    703.0000     49.2577
            6          13      0.1667      0.0800   1410.2328    703.0000     49.2968
            6          14      0.1667      0.0867   1410.9369    703.0000     49.3364
            6          15      0.1667      0.0933   1411.6480    703.0000     49.3764
            6          16      0.1667      0.1000   1412.3664    703.0000     49.4169
            6          17      0.1667      0.1067   1413.0923    703.0000     49.4578
            6          18      0.1667      0.1133   1413.8259    703.0000     49.4993
            6          19      0.1667      0.1200   1414.5675    703.0000     49.5413
            6          20      0.1667      0.1267   1415.3170    703.0000     49.5838
            6          21      0.1667      0.1333   1416.0747    703.0000     49.6269
            6          22      0.1667      0.1400   1416.8406    703.0000     49.6705
            6          23      0.1667      0.1467   1417.6146    703.0000     49.7146
            6          24      0.1667      0.1533   1418.3968    703.0000     49.7593
            6          25      0.1667      0.1600   1419.1871    703.0000     49.8045
            6          26      0.1667      0.1667   1419.9852    703.0000     49.8502
            6          27      0.1667      0.1733   1420.7910    703.0000     49.8964
            6          28      0.1667      0.1800   1421.6041    703.0000     49.9432
            6          29      0.1667      0.1867   1422.4241    703.0000     49.9904
            6          30      0.1667      0.1933   1423.2508    703.0000     50.0381
            6          31      0.1667      0.2000   1424.0834    703.0000     50.0862
            7           1      0.2000      0.0000   1402.7328    703.0000     48.8793
            7           2      0.2000      0.0067   1403.4084    703.0000     48.9166
            7           3      0.2000      0.0133   1404.0862    703.0000     48.9541
            7           4      0.2000      0.0200   1404.7664    703.0000     48.9918
            7           5      0.2000      0.0267   1405.4492    703.0000     49.0297
            7           6      0.2000      0.0333   1406.1348    703.0000     49.0678
            7           7      0.2000      0.0400   1406.8233    703.0000     49.1061
            7           8      0.2000      0.0467   1407.5150    703.0000     49.1447
            7           9      0.2000      0.0533   1408.2100    703.0000     49.1835
            7          10      0.2000      0.0600   1408.9085    703.0000     49.2226
            7          11      0.2000      0.0667   1409.6106    703.0000     49.2619
            7          12      0.2000      0.0733   1410.3166    703.0000     49.3015
            7          13      0.2000      0.0800   1411.0266    703.0000     49.3414
            7          14      0.2000      0.0867   1411.7407    703.0000     49.3816
            7          15      0.2000      0.0933   1412.4592    703.0000     49.4221
            7          16      0.2000      0.1000   1413.1820    703.0000     49.4629
            7          17      0.2000      0.1067   1413.9093    703.0000     49.5040
            7          18      0.2000      0.1133   1414.6413    703.0000     49.5455
            7          19      0.2000      0.1200   1415.3779    703.0000     49.5873
            7          20      0.2000      0.1267   1416.1193    703.0000     49.6294
            7          21      0.2000      0.1333   1416.8655    703.0000     49.6719
            7          22      0.2000      0.1400   1417.6164    703.0000     49.7147
            7          23      0.2000      0.1467   1418.3721    703.0000     49.7578
            7          24      0.2000      0.1533   1419.1324    703.0000     49.8013
            7          25      0.2000      0.1600   1419.8974    703.0000     49.8452
            7          26      0.2000      0.1667   1420.6668    703.0000     49.8893
            7          27      0.2000      0.1733   1421.4405    703.0000     49.9338
            7          28      0.2000      0.1800   1422.2183    703.0000     49.9786
            7          29      0.2000      0.1867   1423.0000    703.0000     50.0236
            7          30      0.2000      0.1933   1423.7853    703.0000     50.0690
            7          31      0.2000      0.2000   1424.5739    703.0000     50.1146
            8           1      0.2333      0.0000   1403.1153    703.0000     48.9004
            8           2      0.2333      0.0067   1403.8172    703.0000     48.9392
            8           3      0.2333      0.0133   1404.5200    703.0000     48.9782
            8           4      0.2333      0.0200   1405.2239    703.0000     49.0172
            8           5      0.2333      0.0267   1405.9291    703.0000     49.0564
            8           6      0.2333      0.0333   1406.6355    703.0000     49.0957
            8           7      0.2333      0.0400   1407.3433    703.0000     49.1351
            8           8      0.2333      0.0467   1408.0525    703.0000     49.1747
            8           9      0.2333      0.0533   1408.7634    703.0000     49.2145
            8          10      0.2333      0.0600   1409.4760    703.0000     49.2544
            8          11      0.2333      0.0667   1410.1903    703.0000     49.2944
            8          12      0.2333      0.0733   1410.9066    703.0000     49.3347
            8          13      0.2333      0.0800   1411.6248    703.0000     49.3751
            8          14      0.2333      0.0867   1412.3450    703.0000     49.4157
            8          15      0.2333      0.0933   1413.0673    703.0000     49.4564
            8          16      0.2333      0.1000   1413.7919    703.0000     49.4974
            8          17      0.2333      0.1067   1414.5186    703.0000     49.5386
            8          18      0.2333      0.1133   1415.2477    703.0000     49.5799
            8          19      0.2333      0.1200   1415.9791    703.0000     49.6214
            8          20      0.2333      0.1267   1416.7128    703.0000     49.6632
            8          21      0.2333      0.1333   1417.4489    703.0000     49.7051
            8          22      0.2333      0.1400   1418.1874    703.0000     49.7473
            8          23      0.2333      0.1467   1418.9282    703.0000     49.7896
            8          24      0.2333      0.1533   1419.6712    703.0000     49.8322
            8          25      0.2333      0.1600   1420.4165    703.0000     49.8749
            8          26      0.2333      0.1667   1421.1640    703.0000     49.9179
            8          27      0.2333      0.1733   1421.9136    703.0000     49.9610
            8          28      0.2333      0.1800   1422.6651    703.0000     50.0043
            8          29      0.2333      0.1867   1423.4184    703.0000     50.0478
            8          30      0.2333      0.1933   1424.1734    703.0000     50.0914
            8          31      0.2333      0.2000   1424.9299    703.0000     50.1352
            9           1      0.2667      0.0000   1403.4061    703.0000     48.9165
            9           2      0.2667      0.0067   1404.1279    703.0000     48.9564
            9           3      0.2667      0.0133   1404.8497    703.0000     48.9964
            9           4      0.2667      0.0200   1405.5715    703.0000     49.0365
            9           5      0.2667      0.0267   1406.2933    703.0000     49.0766
            9           6      0.2667      0.0333   1407.0151    703.0000     49.1168
            9           7      0.2667      0.0400   1407.7371    703.0000     49.1571
            9           8      0.2667      0.0467   1408.4593    703.0000     49.1975
            9           9      0.2667      0.0533   1409.1816    703.0000     49.2379
            9          10      0.2667      0.0600   1409.9042    703.0000     49.2784
            9          11      0.2667      0.0667   1410.6271    703.0000     49.3190
            9          12      0.2667      0.0733   1411.3504    703.0000     49.3596
            9          13      0.2667      0.0800   1412.0740    703.0000     49.4004
            9          14      0.2667      0.0867   1412.7980    703.0000     49.4412
            9          15      0.2667      0.0933   1413.5225    703.0000     49.4822
            9          16      0.2667      0.1000   1414.2475    703.0000     49.5232
            9          17      0.2667      0.1067   1414.9731    703.0000     49.5643
            9          18      0.2667      0.1133   1415.6991    703.0000     49.6055
            9          19      0.2667      0.1200   1416.4258    703.0000     49.6469
            9          20      0.2667      0.1267   1417.1531    703.0000     49.6883
            9          21      0.2667      0.1333   1417.8810    703.0000     49.7298
            9          22      0.2667      0.1400   1418.6095    703.0000     49.7714
            9          23      0.2667      0.1467   1419.3386    703.0000     49.8131
            9          24      0.2667      0.1533   1420.0683    703.0000     49.8550
            9          25      0.2667      0.1600   1420.7986    703.0000     49.8969
            9          26      0.2667      0.1667   1421.5295    703.0000     49.9389
            9          27      0.2667      0.1733   1422.2609    703.0000     49.9810
            9          28      0.2667      0.1800   1422.9928    703.0000     50.0232
            9          29      0.2667      0.1867   1423.7251    703.0000     50.0655
            9          30      0.2667      0.1933   1424.4578    703.0000     50.1079
            9          31      0.2667      0.2000   1425.1908    703.0000     50.1504
           10           1      0.3000      0.0000   1403.6253    703.0000     48.9286
           10           2      0.3000      0.0067   1404.3622    703.0000     48.9694
           10           3      0.3000      0.0133   1405.0982    703.0000     49.0102
           10           4      0.3000      0.0200   1405.8333    703.0000     49.0510
           10           5      0.3000      0.0267   1406.5675    703.0000     49.0919
           10           6      0.3000      0.0333   1407.3009    703.0000     49.1328
           10           7      0.3000      0.0400   1408.0333    703.0000     49.1736
           10           8      0.3000      0.0467   1408.7649    703.0000     49.2145
           10           9      0.3000      0.0533   1409.4956    703.0000     49.2555
           10          10      0.3000      0.0600   1410.2254    703.0000     49.2964
           10          11      0.3000      0.0667   1410.9544    703.0000     49.3374
           10          12      0.3000      0.0733   1411.6825    703.0000     49.3783
           10          13      0.3000      0.0800   1412.4098    703.0000     49.4193
           10          14      0.3000      0.0867   1413.1363    703.0000     49.4603
           10          15      0.3000      0.0933   1413.8621    703.0000     49.5014
           10          16      0.3000      0.1000   1414.5870    703.0000     49.5424
           10          17      0.3000      0.1067   1415.3112    703.0000     49.5835
           10          18      0.3000      0.1133   1416.0347    703.0000     49.6246
           10          19      0.3000      0.1200   1416.7574    703.0000     49.6657
           10          20      0.3000      0.1267   1417.4795    703.0000     49.7069
           10          21      0.3000      0.1333   1418.2010    703.0000     49.7481
           10          22      0.3000      0.1400   1418.9217    703.0000     49.7893
           10          23      0.3000      0.1467   1419.6419    703.0000     49.8305
           10          24      0.3000      0.1533   1420.3615    703.0000     49.8718
           10          25      0.3000      0.1600   1421.0805    703.0000     49.9131
           10          26      0.3000      0.1667   1421.7989    703.0000     49.9544
           10          27      0.3000      0.1733   1422.5168    703.0000     49.9958
           10          28      0.3000      0.1800   1423.2341    703.0000     50.0371
           10          29      0.3000      0.1867   1423.9508    703.0000     50.0786
           10          30      0.3000      0.1933   1424.6670    703.0000     50.1200
           10          31      0.3000      0.2000   1425.3827    703.0000     50.1615
           11           1      0.3333      0.0000   1403.7888    703.0000     48.9377
           11           2      0.3333      0.0067   1404.5369    703.0000     48.9791
           11           3      0.3333      0.0133   1405.2834    703.0000     49.0205
           11           4      0.3333      0.0200   1406.0285    703.0000     49.0619
           11           5      0.3333      0.0267   1406.7719    703.0000     49.1033
           11           6      0.3333      0.0333   1407.5137    703.0000     49.1446
           11           7      0.3333      0.0400   1408.2538    703.0000     49.1860
           11           8      0.3333      0.0467   1408.9923    703.0000     49.2273
           11           9      0.3333      0.0533   1409.7291    703.0000     49.2686
           11          10      0.3333      0.0600   1410.4641    703.0000     49.3098
           11          11      0.3333      0.0667   1411.1975    703.0000     49.3510
           11          12      0.3333      0.0733   1411.9290    703.0000     49.3922
           11          13      0.3333      0.0800   1412.6589    703.0000     49.4334
           11          14      0.3333      0.0867   1413.3870    703.0000     49.4745
           11          15      0.3333      0.0933   1414.1134    703.0000     49.5156
           11          16      0.3333      0.1000   1414.8381    703.0000     49.5567
           11          17      0.3333      0.1067   1415.5611    703.0000     49.5977
           11          18      0.3333      0.1133   1416.2825    703.0000     49.6387
           11          19      0.3333      0.1200   1417.0022    703.0000     49.6797
           11          20      0.3333      0.1267   1417.7202    703.0000     49.7206
           11          21      0.3333      0.1333   1418.4367    703.0000     49.7615
           11          22      0.3333      0.1400   1419.1517    703.0000     49.8024
           11          23      0.3333      0.1467   1419.8651    703.0000     49.8433
           11          24      0.3333      0.1533   1420.5771    703.0000     49.8842
           11          25      0.3333      0.1600   1421.2876    703.0000     49.9250
           11          26      0.3333      0.1667   1421.9968    703.0000     49.9658
           11          27      0.3333      0.1733   1422.7046    703.0000     50.0066
           11          28      0.3333      0.1800   1423.4111    703.0000     50.0474
           11          29      0.3333      0.1867   1424.1164    703.0000     50.0881
           11          30      0.3333      0.1933   1424.8205    703.0000     50.1289
           11          31      0.3333      0.2000   1425.5234    703.0000     50.1697
           12           1      0.3667      0.0000   1403.9086    703.0000     48.9443
           12           2      0.3667      0.0067   1404.6649    703.0000     48.9862
           12           3      0.3667      0.0133   1405.4192    703.0000     49.0280
           12           4      0.3667      0.0200   1406.1714    703.0000     49.0699
           12           5      0.3667      0.0267   1406.9215    703.0000     49.1116
           12           6      0.3667      0.0333   1407.6695    703.0000     49.1533
           12           7      0.3667      0.0400   1408.4152    703.0000     49.1950
           12           8      0.3667      0.0467   1409.1587    703.0000     49.2366
           12           9      0.3667      0.0533   1409.8998    703.0000     49.2781
           12          10      0.3667      0.0600   1410.6386    703.0000     49.3196
           12          11      0.3667      0.0667   1411.3750    703.0000     49.3610
           12          12      0.3667      0.0733   1412.1091    703.0000     49.4024
           12          13      0.3667      0.0800   1412.8407    703.0000     49.4436
           12          14      0.3667      0.0867   1413.5699    703.0000     49.4848
           12          15      0.3667      0.0933   1414.2967    703.0000     49.5260
           12          16      0.3667      0.1000   1415.0212    703.0000     49.5670
           12          17      0.3667      0.1067   1415.7432    703.0000     49.6080
           12          18      0.3667      0.1133   1416.4629    703.0000     49.6490
           12          19      0.3667      0.1200   1417.1802    703.0000     49.6898
           12          20      0.3667      0.1267   1417.8953    703.0000     49.7306
           12          21      0.3667      0.1333   1418.6081    703.0000     49.7713
           12          22      0.3667      0.1400   1419.3187    703.0000     49.8120
           12          23      0.3667      0.1467   1420.0272    703.0000     49.8526
           12          24      0.3667      0.1533   1420.7336    703.0000     49.8931
           12          25      0.3667      0.1600   1421.4379    703.0000     49.9336
           12          26      0.3667      0.1667   1422.1403    703.0000     49.9741
           12          27      0.3667      0.1733   1422.8408    703.0000     50.0144
           12          28      0.3667      0.1800   1423.5395    703.0000     50.0548
           12          29      0.3667      0.1867   1424.2364    703.0000     50.0951
           12          30      0.3667      0.1933   1424.9317    703.0000     50.1353
           12          31      0.3667      0.2000   1425.6254    703.0000     50.1756
           13           1      0.4000      0.0000   1403.9936    703.0000     48.9490
           13           2      0.4000      0.0067   1404.7557    703.0000     48.9912
           13           3      0.4000      0.0133   1405.5155    703.0000     49.0334
           13           4      0.4000      0.0200   1406.2729    703.0000     49.0755
           13           5      0.4000      0.0267   1407.0277    703.0000     49.1175
           13           6      0.4000      0.0333   1407.7800    703.0000     49.1595
           13           7      0.4000      0.0400   1408.5297    703.0000     49.2014
           13           8      0.4000      0.0467   1409.2767    703.0000     49.2432
           13           9      0.4000      0.0533   1410.0209    703.0000     49.2849
           13          10      0.4000      0.0600   1410.7623    703.0000     49.3266
           13          11      0.4000      0.0667   1411.5009    703.0000     49.3681
           13          12      0.4000      0.0733   1412.2366    703.0000     49.4095
           13          13      0.4000      0.0800   1412.9694    703.0000     49.4509
           13          14      0.4000      0.0867   1413.6994    703.0000     49.4922
           13          15      0.4000      0.0933   1414.4264    703.0000     49.5333
           13          16      0.4000      0.1000   1415.1506    703.0000     49.5744
           13          17      0.4000      0.1067   1415.8719    703.0000     49.6154
           13          18      0.4000      0.1133   1416.5904    703.0000     49.6562
           13          19      0.4000      0.1200   1417.3061    703.0000     49.6970
           13          20      0.4000      0.1267   1418.0190    703.0000     49.7377
           13          21      0.4000      0.1333   1418.7291    703.0000     49.7783
           13          22      0.4000      0.1400   1419.4367    703.0000     49.8188
           13          23      0.4000      0.1467   1420.1416    703.0000     49.8592
           13          24      0.4000      0.1533   1420.8440    703.0000     49.8995
           13          25      0.4000      0.1600   1421.5440    703.0000     49.9397
           13          26      0.4000      0.1667   1422.2415    703.0000     49.9799
           13          27      0.4000      0.1733   1422.9369    703.0000     50.0200
           13          28      0.4000      0.1800   1423.6300    703.0000     50.0600
           13          29      0.4000      0.1867   1424.3210    703.0000     50.1000
           13          30      0.4000      0.1933   1425.0101    703.0000     50.1399
           13          31      0.4000      0.2000   1425.6973    703.0000     50.1797
           14           1      0.4333      0.0000   1404.0502    703.0000     48.9521
           14           2      0.4333      0.0067   1404.8162    703.0000     48.9946
           14           3      0.4333      0.0133   1405.5796    703.0000     49.0370
           14           4      0.4333      0.0200   1406.3403    703.0000     49.0793
           14           5      0.4333      0.0267   1407.0984    703.0000     49.1215
           14           6      0.4333      0.0333   1407.8536    703.0000     49.1636
           14           7      0.4333      0.0400   1408.6058    703.0000     49.2056
           14           8      0.4333      0.0467   1409.3551    703.0000     49.2476
           14           9      0.4333      0.0533   1410.1013    703.0000     49.2894
           14          10      0.4333      0.0600   1410.8445    703.0000     49.3312
           14          11      0.4333      0.0667   1411.5845    703.0000     49.3728
           14          12      0.4333      0.0733   1412.3213    703.0000     49.4143
           14          13      0.4333      0.0800   1413.0549    703.0000     49.4557
           14          14      0.4333      0.0867   1413.7853    703.0000     49.4970
           14          15      0.4333      0.0933   1414.5125    703.0000     49.5382
           14          16      0.4333      0.1000   1415.2365    703.0000     49.5793
           14          17      0.4333      0.1067   1415.9574    703.0000     49.6202
           14          18      0.4333      0.1133   1416.6750    703.0000     49.6610
           14          19      0.4333      0.1200   1417.3895    703.0000     49.7018
           14          20      0.4333      0.1267   1418.1010    703.0000     49.7424
           14          21      0.4333      0.1333   1418.8094    703.0000     49.7828
           14          22      0.4333      0.1400   1419.5149    703.0000     49.8232
           14          23      0.4333      0.1467   1420.2174    703.0000     49.8635
           14          24      0.4333      0.1533   1420.9172    703.0000     49.9037
           14          25      0.4333      0.1600   1421.6142    703.0000     49.9438
           14          26      0.4333      0.1667   1422.3086    703.0000     49.9838
           14          27      0.4333      0.1733   1423.0005    703.0000     50.0237
           14          28      0.4333      0.1800   1423.6900    703.0000     50.0635
           14          29      0.4333      0.1867   1424.3771    703.0000     50.1032
           14          30      0.4333      0.1933   1425.0621    703.0000     50.1429
           14          31      0.4333      0.2000   1425.7450    703.0000     50.1825
           15           1      0.4667      0.0000   1404.0826    703.0000     48.9539
           15           2      0.4667      0.0067   1404.8507    703.0000     48.9965
           15           3      0.4667      0.0133   1405.6162    703.0000     49.0390
           15           4      0.4667      0.0200   1406.3789    703.0000     49.0814
           15           5      0.4667      0.0267   1407.1388    703.0000     49.1237
           15           6      0.4667      0.0333   1407.8956    703.0000     49.1660
           15           7      0.4667      0.0400   1408.6493    703.0000     49.2081
           15           8      0.4667      0.0467   1409.4000    703.0000     49.2501
           15           9      0.4667      0.0533   1410.1473    703.0000     49.2920
           15          10      0.4667      0.0600   1410.8915    703.0000     49.3338
           15          11      0.4667      0.0667   1411.6323    703.0000     49.3755
           15          12      0.4667      0.0733   1412.3697    703.0000     49.4171
           15          13      0.4667      0.0800   1413.1038    703.0000     49.4585
           15          14      0.4667      0.0867   1413.8345    703.0000     49.4998
           15          15      0.4667      0.0933   1414.5617    703.0000     49.5410
           15          16      0.4667      0.1000   1415.2856    703.0000     49.5821
           15          17      0.4667      0.1067   1416.0062    703.0000     49.6230
           15          18      0.4667      0.1133   1416.7233    703.0000     49.6638
           15          19      0.4667      0.1200   1417.4372    703.0000     49.7045
           15          20      0.4667      0.1267   1418.1478    703.0000     49.7450
           15          21      0.4667      0.1333   1418.8552    703.0000     49.7855
           15          22      0.4667      0.1400   1419.5595    703.0000     49.8258
           15          23      0.4667      0.1467   1420.2607    703.0000     49.8660
           15          24      0.4667      0.1533   1420.9590    703.0000     49.9061
           15          25      0.4667      0.1600   1421.6543    703.0000     49.9461
           15          26      0.4667      0.1667   1422.3469    703.0000     49.9860
           15          27      0.4667      0.1733   1423.0368    703.0000     50.0258
           15          28      0.4667      0.1800   1423.7242    703.0000     50.0655
           15          29      0.4667      0.1867   1424.4091    703.0000     50.1051
           15          30      0.4667      0.1933   1425.0917    703.0000     50.1446
           15          31      0.4667      0.2000   1425.7721    703.0000     50.1841
           16           1      0.5000      0.0000   1404.0931    703.0000     48.9545
           16           2      0.5000      0.0067   1404.8620    703.0000     48.9971
           16           3      0.5000      0.0133   1405.6282    703.0000     49.0397
           16           4      0.5000      0.0200   1406.3915    703.0000     49.0821
           16           5      0.5000      0.0267   1407.1519    703.0000     49.1245
           16           6      0.5000      0.0333   1407.9093    703.0000     49.1667
           16           7      0.5000      0.0400   1408.6635    703.0000     49.2089
           16           8      0.5000      0.0467   1409.4146    703.0000     49.2509
           16           9      0.5000      0.0533   1410.1623    703.0000     49.2929
           16          10      0.5000      0.0600   1410.9068    703.0000     49.3347
           16          11      0.5000      0.0667   1411.6478    703.0000     49.3764
           16          12      0.5000      0.0733   1412.3855    703.0000     49.4179
           16          13      0.5000      0.0800   1413.1197    703.0000     49.4594
           16          14      0.5000      0.0867   1413.8504    703.0000     49.5007
           16          15      0.5000      0.0933   1414.5778    703.0000     49.5419
           16          16      0.5000      0.1000   1415.3016    703.0000     49.5830
           16          17      0.5000      0.1067   1416.0220    703.0000     49.6239
           16          18      0.5000      0.1133   1416.7391    703.0000     49.6647
           16          19      0.5000      0.1200   1417.4527    703.0000     49.7054
           16          20      0.5000      0.1267   1418.1630    703.0000     49.7459
           16          21      0.5000      0.1333   1418.8701    703.0000     49.7863
           16          22      0.5000      0.1400   1419.5740    703.0000     49.8266
           16          23      0.5000      0.1467   1420.2748    703.0000     49.8668
           16          24      0.5000      0.1533   1420.9725    703.0000     49.9069
           16          25      0.5000      0.1600   1421.6674    703.0000     49.9468
           16          26      0.5000      0.1667   1422.3593    703.0000     49.9867
           16          27      0.5000      0.1733   1423.0486    703.0000     50.0264
           16          28      0.5000      0.1800   1423.7353    703.0000     50.0661
           16          29      0.5000      0.1867   1424.4195    703.0000     50.1057
           16          30      0.5000      0.1933   1425.1013    703.0000     50.1452
           16          31      0.5000      0.2000   1425.7810    703.0000     50.1846
           17           1      0.5333      0.0000   1404.0826    703.0000     48.9539
           17           2      0.5333      0.0067   1404.8508    703.0000     48.9965
           17           3      0.5333      0.0133   1405.6163    703.0000     49.0390
           17           4      0.5333      0.0200   1406.3790    703.0000     49.0814
           17           5      0.5333      0.0267   1407.1388    703.0000     49.1237
           17           6      0.5333      0.0333   1407.8956    703.0000     49.1660
           17           7      0.5333      0.0400   1408.6494    703.0000     49.2081
           17           8      0.5333      0.0467   1409.4000    703.0000     49.2501
           17           9      0.5333      0.0533   1410.1474    703.0000     49.2920
           17          10      0.5333      0.0600   1410.8915    703.0000     49.3338
           17          11      0.5333      0.0667   1411.6323    703.0000     49.3755
           17          12      0.5333      0.0733   1412.3698    703.0000     49.4171
           17          13      0.5333      0.0800   1413.1038    703.0000     49.4585
           17          14      0.5333      0.0867   1413.8345    703.0000     49.4998
           17          15      0.5333      0.0933   1414.5618    703.0000     49.5410
           17          16      0.5333      0.1000   1415.2857    703.0000     49.5821
           17          17      0.5333      0.1067   1416.0062    703.0000     49.6230
           17          18      0.5333      0.1133   1416.7234    703.0000     49.6638
           17          19      0.5333      0.1200   1417.4373    703.0000     49.7045
           17          20      0.5333      0.1267   1418.1479    703.0000     49.7450
           17          21      0.5333      0.1333   1418.8553    703.0000     49.7855
           17          22      0.5333      0.1400   1419.5595    703.0000     49.8258
           17          23      0.5333      0.1467   1420.2608    703.0000     49.8660
           17          24      0.5333      0.1533   1420.9590    703.0000     49.9061
           17          25      0.5333      0.1600   1421.6544    703.0000     49.9461
           17          26      0.5333      0.1667   1422.3469    703.0000     49.9860
           17          27      0.5333      0.1733   1423.0368    703.0000     50.0258
           17          28      0.5333      0.1800   1423.7242    703.0000     50.0655
           17          29      0.5333      0.1867   1424.4091    703.0000     50.1051
           17          30      0.5333      0.1933   1425.0917    703.0000     50.1446
           17          31      0.5333      0.2000   1425.7722    703.0000     50.1841
           18           1      0.5667      0.0000   1404.0503    703.0000     48.9521
           18           2      0.5667      0.0067   1404.8162    703.0000     48.9946
           18           3      0.5667      0.0133   1405.5797    703.0000     49.0370
           18           4      0.5667      0.0200   1406.3404    703.0000     49.0793
           18           5      0.5667      0.0267   1407.0985    703.0000     49.1215
           18           6      0.5667      0.0333   1407.8536    703.0000     49.1636
           18           7      0.5667      0.0400   1408.6059    703.0000     49.2057
           18           8      0.5667      0.0467   1409.3552    703.0000     49.2476
           18           9      0.5667      0.0533   1410.1014    703.0000     49.2894
           18          10      0.5667      0.0600   1410.8446    703.0000     49.3312
           18          11      0.5667      0.0667   1411.5846    703.0000     49.3728
           18          12      0.5667      0.0733   1412.3214    703.0000     49.4143
           18          13      0.5667      0.0800   1413.0550    703.0000     49.4557
           18          14      0.5667      0.0867   1413.7854    703.0000     49.4970
           18          15      0.5667      0.0933   1414.5126    703.0000     49.5382
           18          16      0.5667      0.1000   1415.2366    703.0000     49.5793
           18          17      0.5667      0.1067   1415.9575    703.0000     49.6202
           18          18      0.5667      0.1133   1416.6751    703.0000     49.6610
           18          19      0.5667      0.1200   1417.3896    703.0000     49.7018
           18          20      0.5667      0.1267   1418.1011    703.0000     49.7424
           18          21      0.5667      0.1333   1418.8095    703.0000     49.7829
           18          22      0.5667      0.1400   1419.5150    703.0000     49.8232
           18          23      0.5667      0.1467   1420.2175    703.0000     49.8635
           18          24      0.5667      0.1533   1420.9173    703.0000     49.9037
           18          25      0.5667      0.1600   1421.6143    703.0000     49.9438
           18          26      0.5667      0.1667   1422.3087    703.0000     49.9838
           18          27      0.5667      0.1733   1423.0006    703.0000     50.0237
           18          28      0.5667      0.1800   1423.6900    703.0000     50.0635
           18          29      0.5667      0.1867   1424.3772    703.0000     50.1032
           18          30      0.5667      0.1933   1425.0621    703.0000     50.1429
           18          31      0.5667      0.2000   1425.7450    703.0000     50.1825
           19           1      0.6000      0.0000   1403.9937    703.0000     48.9490
           19           2      0.6000      0.0067   1404.7558    703.0000     48.9912
           19           3      0.6000      0.0133   1405.5156    703.0000     49.0334
           19           4      0.6000      0.0200   1406.2730    703.0000     49.0755
           19           5      0.6000      0.0267   1407.0279    703.0000     49.1175
           19           6      0.6000      0.0333   1407.7802    703.0000     49.1595
           19           7      0.6000      0.0400   1408.5298    703.0000     49.2014
           19           8      0.6000      0.0467   1409.2768    703.0000     49.2432
           19           9      0.6000      0.0533   1410.0210    703.0000     49.2849
           19          10      0.6000      0.0600   1410.7624    703.0000     49.3266
           19          11      0.6000      0.0667   1411.5010    703.0000     49.3681
           19          12      0.6000      0.0733   1412.2367    703.0000     49.4096
           19          13      0.6000      0.0800   1412.9696    703.0000     49.4509
           19          14      0.6000      0.0867   1413.6995    703.0000     49.4922
           19          15      0.6000      0.0933   1414.4266    703.0000     49.5333
           19          16      0.6000      0.1000   1415.1508    703.0000     49.5744
           19          17      0.6000      0.1067   1415.8721    703.0000     49.6154
           19          18      0.6000      0.1133   1416.5906    703.0000     49.6562
           19          19      0.6000      0.1200   1417.3062    703.0000     49.6970
           19          20      0.6000      0.1267   1418.0191    703.0000     49.7377
           19          21      0.6000      0.1333   1418.7293    703.0000     49.7783
           19          22      0.6000      0.1400   1419.4368    703.0000     49.8188
           19          23      0.6000      0.1467   1420.1417    703.0000     49.8592
           19          24      0.6000      0.1533   1420.8441    703.0000     49.8995
           19          25      0.6000      0.1600   1421.5441    703.0000     49.9397
           19          26      0.6000      0.1667   1422.2417    703.0000     49.9799
           19          27      0.6000      0.1733   1422.9370    703.0000     50.0200
           19          28      0.6000      0.1800   1423.6301    703.0000     50.0600
           19          29      0.6000      0.1867   1424.3212    703.0000     50.1000
           19          30      0.6000      0.1933   1425.0102    703.0000     50.1399
           19          31      0.6000      0.2000   1425.6974    703.0000     50.1798
           20           1      0.6333      0.0000   1403.9088    703.0000     48.9443
           20           2      0.6333      0.0067   1404.6651    703.0000     48.9862
           20           3      0.6333      0.0133   1405.4194    703.0000     49.0281
           20           4      0.6333      0.0200   1406.1716    703.0000     49.0699
           20           5      0.6333      0.0267   1406.9218    703.0000     49.1116
           20           6      0.6333      0.0333   1407.6697    703.0000     49.1533
           20           7      0.6333      0.0400   1408.4155    703.0000     49.1950
           20           8      0.6333      0.0467   1409.1589    703.0000     49.2366
           20           9      0.6333      0.0533   1409.9001    703.0000     49.2781
           20          10      0.6333      0.0600   1410.6389    703.0000     49.3196
           20          11      0.6333      0.0667   1411.3753    703.0000     49.3610
           20          12      0.6333      0.0733   1412.1093    703.0000     49.4024
           20          13      0.6333      0.0800   1412.8410    703.0000     49.4437
           20          14      0.6333      0.0867   1413.5702    703.0000     49.4849
           20          15      0.6333      0.0933   1414.2970    703.0000     49.5260
           20          16      0.6333      0.1000   1415.0214    703.0000     49.5671
           20          17      0.6333      0.1067   1415.7435    703.0000     49.6081
           20          18      0.6333      0.1133   1416.4631    703.0000     49.6490
           20          19      0.6333      0.1200   1417.1805    703.0000     49.6898
           20          20      0.6333      0.1267   1417.8956    703.0000     49.7306
           20          21      0.6333      0.1333   1418.6084    703.0000     49.7714
           20          22      0.6333      0.1400   1419.3190    703.0000     49.8120
           20          23      0.6333      0.1467   1420.0274    703.0000     49.8526
           20          24      0.6333      0.1533   1420.7338    703.0000     49.8932
           20          25      0.6333      0.1600   1421.4382    703.0000     49.9336
           20          26      0.6333      0.1667   1422.1405    703.0000     49.9741
           20          27      0.6333      0.1733   1422.8410    703.0000     50.0145
           20          28      0.6333      0.1800   1423.5397    703.0000     50.0548
           20          29      0.6333      0.1867   1424.2366    703.0000     50.0951
           20          30      0.6333      0.1933   1424.9319    703.0000     50.1354
           20          31      0.6333      0.2000   1425.6256    703.0000     50.1756
           21           1      0.6667      0.0000   1403.7891    703.0000     48.9377
           21           2      0.6667      0.0067   1404.5372    703.0000     48.9791
           21           3      0.6667      0.0133   1405.2837    703.0000     49.0205
           21           4      0.6667      0.0200   1406.0288    703.0000     49.0619
           21           5      0.6667      0.0267   1406.7722    703.0000     49.1033
           21           6      0.6667      0.0333   1407.5140    703.0000     49.1447
           21           7      0.6667      0.0400   1408.2542    703.0000     49.1860
           21           8      0.6667      0.0467   1408.9927    703.0000     49.2273
           21           9      0.6667      0.0533   1409.7295    703.0000     49.2686
           21          10      0.6667      0.0600   1410.4645    703.0000     49.3098
           21          11      0.6667      0.0667   1411.1978    703.0000     49.3510
           21          12      0.6667      0.0733   1411.9294    703.0000     49.3922
           21          13      0.6667      0.0800   1412.6593    703.0000     49.4334
           21          14      0.6667      0.0867   1413.3874    703.0000     49.4745
           21          15      0.6667      0.0933   1414.1138    703.0000     49.5156
           21          16      0.6667      0.1000   1414.8385    703.0000     49.5567
           21          17      0.6667      0.1067   1415.5615    703.0000     49.5977
           21          18      0.6667      0.1133   1416.2828    703.0000     49.6387
           21          19      0.6667      0.1200   1417.0025    703.0000     49.6797
           21          20      0.6667      0.1267   1417.7206    703.0000     49.7206
           21          21      0.6667      0.1333   1418.4371    703.0000     49.7616
           21          22      0.6667      0.1400   1419.1520    703.0000     49.8025
           21          23      0.6667      0.1467   1419.8655    703.0000     49.8433
           21          24      0.6667      0.1533   1420.5774    703.0000     49.8842
           21          25      0.6667      0.1600   1421.2879    703.0000     49.9250
           21          26      0.6667      0.1667   1421.9971    703.0000     49.9658
           21          27      0.6667      0.1733   1422.7049    703.0000     50.0066
           21          28      0.6667      0.1800   1423.4114    703.0000     50.0474
           21          29      0.6667      0.1867   1424.1167    703.0000     50.0882
           21          30      0.6667      0.1933   1424.8207    703.0000     50.1289
           21          31      0.6667      0.2000   1425.5236    703.0000     50.1697
           22           1      0.7000      0.0000   1403.6257    703.0000     48.9286
           22           2      0.7000      0.0067   1404.3626    703.0000     48.9694
           22           3      0.7000      0.0133   1405.0986    703.0000     49.0102
           22           4      0.7000      0.0200   1405.8337    703.0000     49.0511
           22           5      0.7000      0.0267   1406.5680    703.0000     49.0919
           22           6      0.7000      0.0333   1407.3014    703.0000     49.1328
           22           7      0.7000      0.0400   1408.0338    703.0000     49.1737
           22           8      0.7000      0.0467   1408.7654    703.0000     49.2146
           22           9      0.7000      0.0533   1409.4961    703.0000     49.2555
           22          10      0.7000      0.0600   1410.2260    703.0000     49.2964
           22          11      0.7000      0.0667   1410.9550    703.0000     49.3374
           22          12      0.7000      0.0733   1411.6831    703.0000     49.3784
           22          13      0.7000      0.0800   1412.4104    703.0000     49.4194
           22          14      0.7000      0.0867   1413.1369    703.0000     49.4604
           22          15      0.7000      0.0933   1413.8626    703.0000     49.5014
           22          16      0.7000      0.1000   1414.5876    703.0000     49.5425
           22          17      0.7000      0.1067   1415.3118    703.0000     49.5835
           22          18      0.7000      0.1133   1416.0352    703.0000     49.6246
           22          19      0.7000      0.1200   1416.7580    703.0000     49.6658
           22          20      0.7000      0.1267   1417.4801    703.0000     49.7069
           22          21      0.7000      0.1333   1418.2015    703.0000     49.7481
           22          22      0.7000      0.1400   1418.9223    703.0000     49.7893
           22          23      0.7000      0.1467   1419.6424    703.0000     49.8305
           22          24      0.7000      0.1533   1420.3620    703.0000     49.8718
           22          25      0.7000      0.1600   1421.0810    703.0000     49.9131
           22          26      0.7000      0.1667   1421.7993    703.0000     49.9544
           22          27      0.7000      0.1733   1422.5172    703.0000     49.9958
           22          28      0.7000      0.1800   1423.2344    703.0000     50.0372
           22          29      0.7000      0.1867   1423.9512    703.0000     50.0786
           22          30      0.7000      0.1933   1424.6674    703.0000     50.1200
           22          31      0.7000      0.2000   1425.3830    703.0000     50.1615
           23           1      0.7333      0.0000   1403.4066    703.0000     48.9165
           23           2      0.7333      0.0067   1404.1285    703.0000     48.9565
           23           3      0.7333      0.0133   1404.8503    703.0000     48.9965
           23           4      0.7333      0.0200   1405.5721    703.0000     49.0365
           23           5      0.7333      0.0267   1406.2939    703.0000     49.0767
           23           6      0.7333      0.0333   1407.0158    703.0000     49.1169
           23           7      0.7333      0.0400   1407.7379    703.0000     49.1571
           23           8      0.7333      0.0467   1408.4600    703.0000     49.1975
           23           9      0.7333      0.0533   1409.1824    703.0000     49.2379
           23          10      0.7333      0.0600   1409.9050    703.0000     49.2784
           23          11      0.7333      0.0667   1410.6279    703.0000     49.3190
           23          12      0.7333      0.0733   1411.3512    703.0000     49.3597
           23          13      0.7333      0.0800   1412.0748    703.0000     49.4004
           23          14      0.7333      0.0867   1412.7988    703.0000     49.4413
           23          15      0.7333      0.0933   1413.5233    703.0000     49.4822
           23          16      0.7333      0.1000   1414.2483    703.0000     49.5232
           23          17      0.7333      0.1067   1414.9739    703.0000     49.5644
           23          18      0.7333      0.1133   1415.7000    703.0000     49.6056
           23          19      0.7333      0.1200   1416.4266    703.0000     49.6469
           23          20      0.7333      0.1267   1417.1539    703.0000     49.6883
           23          21      0.7333      0.1333   1417.8817    703.0000     49.7298
           23          22      0.7333      0.1400   1418.6102    703.0000     49.7715
           23          23      0.7333      0.1467   1419.3393    703.0000     49.8132
           23          24      0.7333      0.1533   1420.0690    703.0000     49.8550
           23          25      0.7333      0.1600   1420.7993    703.0000     49.8969
           23          26      0.7333      0.1667   1421.5301    703.0000     49.9389
           23          27      0.7333      0.1733   1422.2615    703.0000     49.9810
           23          28      0.7333      0.1800   1422.9934    703.0000     50.0232
           23          29      0.7333      0.1867   1423.7256    703.0000     50.0655
           23          30      0.7333      0.1933   1424.4583    703.0000     50.1079
           23          31      0.7333      0.2000   1425.1912    703.0000     50.1504
           24           1      0.7667      0.0000   1403.1161    703.0000     48.9005
           24           2      0.7667      0.0067   1403.8180    703.0000     48.9393
           24           3      0.7667      0.0133   1404.5209    703.0000     48.9782
           24           4      0.7667      0.0200   1405.2249    703.0000     49.0173
           24           5      0.7667      0.0267   1405.9300    703.0000     49.0564
           24           6      0.7667      0.0333   1406.6365    703.0000     49.0957
           24           7      0.7667      0.0400   1407.3443    703.0000     49.1352
           24           8      0.7667      0.0467   1408.0536    703.0000     49.1748
           24           9      0.7667      0.0533   1408.7645    703.0000     49.2145
           24          10      0.7667      0.0600   1409.4771    703.0000     49.2544
           24          11      0.7667      0.0667   1410.1915    703.0000     49.2945
           24          12      0.7667      0.0733   1410.9077    703.0000     49.3347
           24          13      0.7667      0.0800   1411.6259    703.0000     49.3751
           24          14      0.7667      0.0867   1412.3461    703.0000     49.4157
           24          15      0.7667      0.0933   1413.0685    703.0000     49.4565
           24          16      0.7667      0.1000   1413.7930    703.0000     49.4975
           24          17      0.7667      0.1067   1414.5198    703.0000     49.5386
           24          18      0.7667      0.1133   1415.2488    703.0000     49.5800
           24          19      0.7667      0.1200   1415.9802    703.0000     49.6215
           24          20      0.7667      0.1267   1416.7139    703.0000     49.6633
           24          21      0.7667      0.1333   1417.4500    703.0000     49.7052
           24          22      0.7667      0.1400   1418.1884    703.0000     49.7474
           24          23      0.7667      0.1467   1418.9292    703.0000     49.7897
           24          24      0.7667      0.1533   1419.6722    703.0000     49.8322
           24          25      0.7667      0.1600   1420.4175    703.0000     49.8750
           24          26      0.7667      0.1667   1421.1649    703.0000     49.9179
           24          27      0.7667      0.1733   1421.9144    703.0000     49.9610
           24          28      0.7667      0.1800   1422.6658    703.0000     50.0043
           24          29      0.7667      0.1867   1423.4191    703.0000     50.0478
           24          30      0.7667      0.1933   1424.1741    703.0000     50.0915
           24          31      0.7667      0.2000   1424.9306    703.0000     50.1353
           25           1      0.8000      0.0000   1402.7339    703.0000     48.8794
           25           2      0.8000      0.0067   1403.4095    703.0000     48.9167
           25           3      0.8000      0.0133   1404.0874    703.0000     48.9542
           25           4      0.8000      0.0200   1404.7676    703.0000     48.9919
           25           5      0.8000      0.0267   1405.4505    703.0000     49.0298
           25           6      0.8000      0.0333   1406.1361    703.0000     49.0679
           25           7      0.8000      0.0400   1406.8247    703.0000     49.1062
           25           8      0.8000      0.0467   1407.5164    703.0000     49.1448
           25           9      0.8000      0.0533   1408.2115    703.0000     49.1836
           25          10      0.8000      0.0600   1408.9100    703.0000     49.2227
           25          11      0.8000      0.0667   1409.6122    703.0000     49.2620
           25          12      0.8000      0.0733   1410.3182    703.0000     49.3016
           25          13      0.8000      0.0800   1411.0282    703.0000     49.3415
           25          14      0.8000      0.0867   1411.7423    703.0000     49.3817
           25          15      0.8000      0.0933   1412.4607    703.0000     49.4222
           25          16      0.8000      0.1000   1413.1836    703.0000     49.4630
           25          17      0.8000      0.1067   1413.9109    703.0000     49.5041
           25          18      0.8000      0.1133   1414.6428    703.0000     49.5456
           25          19      0.8000      0.1200   1415.3795    703.0000     49.5874
           25          20      0.8000      0.1267   1416.1208    703.0000     49.6295
           25          21      0.8000      0.1333   1416.8669    703.0000     49.6720
           25          22      0.8000      0.1400   1417.6178    703.0000     49.7148
           25          23      0.8000      0.1467   1418.3735    703.0000     49.7579
           25          24      0.8000      0.1533   1419.1338    703.0000     49.8014
           25          25      0.8000      0.1600   1419.8987    703.0000     49.8452
           25          26      0.8000      0.1667   1420.6680    703.0000     49.8894
           25          27      0.8000      0.1733   1421.4417    703.0000     49.9338
           25          28      0.8000      0.1800   1422.2194    703.0000     49.9786
           25          29      0.8000      0.1867   1423.0010    703.0000     50.0237
           25          30      0.8000      0.1933   1423.7862    703.0000     50.0690
           25          31      0.8000      0.2000   1424.5748    703.0000     50.1147
           26           1      0.8333      0.0000   1402.2355    703.0000     48.8519
           26           2      0.8333      0.0067   1402.8767    703.0000     48.8873
           26           3      0.8333      0.0133   1403.5216    703.0000     48.9229
           26           4      0.8333      0.0200   1404.1705    703.0000     48.9588
           26           5      0.8333      0.0267   1404.8236    703.0000     48.9950
           26           6      0.8333      0.0333   1405.4812    703.0000     49.0315
           26           7      0.8333      0.0400   1406.1436    703.0000     49.0683
           26           8      0.8333      0.0467   1406.8111    703.0000     49.1055
           26           9      0.8333      0.0533   1407.4840    703.0000     49.1430
           26          10      0.8333      0.0600   1408.1625    703.0000     49.1809
           26          11      0.8333      0.0667   1408.8470    703.0000     49.2191
           26          12      0.8333      0.0733   1409.5377    703.0000     49.2578
           26          13      0.8333      0.0800   1410.2350    703.0000     49.2969
           26          14      0.8333      0.0867   1410.9390    703.0000     49.3365
           26          15      0.8333      0.0933   1411.6501    703.0000     49.3765
           26          16      0.8333      0.1000   1412.3685    703.0000     49.4170
           26          17      0.8333      0.1067   1413.0944    703.0000     49.4580
           26          18      0.8333      0.1133   1413.8280    703.0000     49.4994
           26          19      0.8333      0.1200   1414.5695    703.0000     49.5414
           26          20      0.8333      0.1267   1415.3191    703.0000     49.5840
           26          21      0.8333      0.1333   1416.0767    703.0000     49.6270
           26          22      0.8333      0.1400   1416.8425    703.0000     49.6706
           26          23      0.8333      0.1467   1417.6165    703.0000     49.7147
           26          24      0.8333      0.1533   1418.3987    703.0000     49.7594
           26          25      0.8333      0.1600   1419.1888    703.0000     49.8046
           26          26      0.8333      0.1667   1419.9869    703.0000     49.8503
           26          27      0.8333      0.1733   1420.7925    703.0000     49.8965
           26          28      0.8333      0.1800   1421.6055    703.0000     49.9433
           26          29      0.8333      0.1867   1422.4255    703.0000     49.9905
           26          30      0.8333      0.1933   1423.2520    703.0000     50.0382
           26          31      0.8333      0.2000   1424.0846    703.0000     50.0863
           27           1      0.8667      0.0000   1401.5925    703.0000     48.8165
           27           2      0.8667      0.0067   1402.1892    703.0000     48.8493
           27           3      0.8667      0.0133   1402.7912    703.0000     48.8825
           27           4      0.8667      0.0200   1403.3987    703.0000     48.9161
           27           5      0.8667      0.0267   1404.0121    703.0000     48.9500
           27           6      0.8667      0.0333   1404.6320    703.0000     48.9844
           27           7      0.8667      0.0400   1405.2586    703.0000     49.0191
           27           8      0.8667      0.0467   1405.8925    703.0000     49.0543
           27           9      0.8667      0.0533   1406.5341    703.0000     49.0900
           27          10      0.8667      0.0600   1407.1838    703.0000     49.1262
           27          11      0.8667      0.0667   1407.8421    703.0000     49.1630
           27          12      0.8667      0.0733   1408.5095    703.0000     49.2003
           27          13      0.8667      0.0800   1409.1864    703.0000     49.2381
           27          14      0.8667      0.0867   1409.8733    703.0000     49.2766
           27          15      0.8667      0.0933   1410.5707    703.0000     49.3158
           27          16      0.8667      0.1000   1411.2790    703.0000     49.3556
           27          17      0.8667      0.1067   1411.9987    703.0000     49.3961
           27          18      0.8667      0.1133   1412.7302    703.0000     49.4374
           27          19      0.8667      0.1200   1413.4738    703.0000     49.4794
           27          20      0.8667      0.1267   1414.2300    703.0000     49.5222
           27          21      0.8667      0.1333   1414.9990    703.0000     49.5658
           27          22      0.8667      0.1400   1415.7810    703.0000     49.6102
           27          23      0.8667      0.1467   1416.5762    703.0000     49.6554
           27          24      0.8667      0.1533   1417.3847    703.0000     49.7015
           27          25      0.8667      0.1600   1418.2064    703.0000     49.7484
           27          26      0.8667      0.1667   1419.0412    703.0000     49.7961
           27          27      0.8667      0.1733   1419.8889    703.0000     49.8447
           27          28      0.8667      0.1800   1420.7491    703.0000     49.8940
           27          29      0.8667      0.1867   1421.6212    703.0000     49.9442
           27          30      0.8667      0.1933   1422.5047    703.0000     49.9951
           27          31      0.8667      0.2000   1423.3986    703.0000     50.0466
           28           1      0.9000      0.0000   1400.7756    703.0000     48.7715
           28           2      0.9000      0.0067   1401.3154    703.0000     48.8012
           28           3      0.9000      0.0133   1401.8619    703.0000     48.8313
           28           4      0.9000      0.0200   1402.4154    703.0000     48.8618
           28           5      0.9000      0.0267   1402.9764    703.0000     48.8928
           28           6      0.9000      0.0333   1403.5456    703.0000     48.9242
           28           7      0.9000      0.0400   1404.1235    703.0000     48.9562
           28           8      0.9000      0.0467   1404.7106    703.0000     48.9887
           28           9      0.9000      0.0533   1405.3077    703.0000     49.0219
           28          10      0.9000      0.0600   1405.9154    703.0000     49.0556
           28          11      0.9000      0.0667   1406.5344    703.0000     49.0901
           28          12      0.9000      0.0733   1407.1654    703.0000     49.1252
           28          13      0.9000      0.0800   1407.8092    703.0000     49.1611
           28          14      0.9000      0.0867   1408.4665    703.0000     49.1979
           28          15      0.9000      0.0933   1409.1383    703.0000     49.2354
           28          16      0.9000      0.1000   1409.8253    703.0000     49.2739
           28          17      0.9000      0.1067   1410.5283    703.0000     49.3134
           28          18      0.9000      0.1133   1411.2482    703.0000     49.3539
           28          19      0.9000      0.1200   1411.9858    703.0000     49.3954
           28          20      0.9000      0.1267   1412.7419    703.0000     49.4381
           28          21      0.9000      0.1333   1413.5173    703.0000     49.4819
           28          22      0.9000      0.1400   1414.3126    703.0000     49.5269
           28          23      0.9000      0.1467   1415.1285    703.0000     49.5731
           28          24      0.9000      0.1533   1415.9654    703.0000     49.6207
           28          25      0.9000      0.1600   1416.8237    703.0000     49.6695
           28          26      0.9000      0.1667   1417.7036    703.0000     49.7197
           28          27      0.9000      0.1733   1418.6049    703.0000     49.7712
           28          28      0.9000      0.1800   1419.5274    703.0000     49.8239
           28          29      0.9000      0.1867   1420.4705    703.0000     49.8780
           28          30      0.9000      0.1933   1421.4333    703.0000     49.9334
           28          31      0.9000      0.2000   1422.4146    703.0000     49.9899
           29           1      0.9333      0.0000   1399.7594    703.0000     48.7158
           29           2      0.9333      0.0067   1400.2282    703.0000     48.7415
           29           3      0.9333      0.0133   1400.7043    703.0000     48.7676
           29           4      0.9333      0.0200   1401.1884    703.0000     48.7942
           29           5      0.9333      0.0267   1401.6811    703.0000     48.8213
           29           6      0.9333      0.0333   1402.1830    703.0000     48.8490
           29           7      0.9333      0.0400   1402.6948    703.0000     48.8772
           29           8      0.9333      0.0467   1403.2173    703.0000     48.9061
           29           9      0.9333      0.0533   1403.7514    703.0000     48.9356
           29          10      0.9333      0.0600   1404.2979    703.0000     48.9658
           29          11      0.9333      0.0667   1404.8578    703.0000     48.9969
           29          12      0.9333      0.0733   1405.4321    703.0000     49.0288
           29          13      0.9333      0.0800   1406.0220    703.0000     49.0615
           29          14      0.9333      0.0867   1406.6287    703.0000     49.0953
           29          15      0.9333      0.0933   1407.2535    703.0000     49.1301
           29          16      0.9333      0.1000   1407.8977    703.0000     49.1661
           29          17      0.9333      0.1067   1408.5628    703.0000     49.2032
           29          18      0.9333      0.1133   1409.2503    703.0000     49.2417
           29          19      0.9333      0.1200   1409.9619    703.0000     49.2816
           29          20      0.9333      0.1267   1410.6993    703.0000     49.3230
           29          21      0.9333      0.1333   1411.4641    703.0000     49.3660
           29          22      0.9333      0.1400   1412.2581    703.0000     49.4108
           29          23      0.9333      0.1467   1413.0832    703.0000     49.4573
           29          24      0.9333      0.1533   1413.9408    703.0000     49.5058
           29          25      0.9333      0.1600   1414.8327    703.0000     49.5564
           29          26      0.9333      0.1667   1415.7600    703.0000     49.6090
           29          27      0.9333      0.1733   1416.7240    703.0000     49.6638
           29          28      0.9333      0.1800   1417.7251    703.0000     49.7209
           29          29      0.9333      0.1867   1418.7634    703.0000     49.7802
           29          30      0.9333      0.1933   1419.8381    703.0000     49.8418
           29          31      0.9333      0.2000   1420.9475    703.0000     49.9054
           30           1      0.9667      0.0000   1398.5321    703.0000     48.6486
           30           2      0.9667      0.0067   1398.9144    703.0000     48.6695
           30           3      0.9667      0.0133   1399.3039    703.0000     48.6908
           30           4      0.9667      0.0200   1399.7012    703.0000     48.7126
           30           5      0.9667      0.0267   1400.1068    703.0000     48.7348
           30           6      0.9667      0.0333   1400.5215    703.0000     48.7576
           30           7      0.9667      0.0400   1400.9460    703.0000     48.7809
           30           8      0.9667      0.0467   1401.3812    703.0000     48.8048
           30           9      0.9667      0.0533   1401.8280    703.0000     48.8294
           30          10      0.9667      0.0600   1402.2875    703.0000     48.8547
           30          11      0.9667      0.0667   1402.7606    703.0000     48.8808
           30          12      0.9667      0.0733   1403.2489    703.0000     48.9078
           30          13      0.9667      0.0800   1403.7535    703.0000     48.9357
           30          14      0.9667      0.0867   1404.2761    703.0000     48.9646
           30          15      0.9667      0.0933   1404.8185    703.0000     48.9947
           30          16      0.9667      0.1000   1405.3825    703.0000     49.0260
           30          17      0.9667      0.1067   1405.9704    703.0000     49.0587
           30          18      0.9667      0.1133   1406.5844    703.0000     49.0928
           30          19      0.9667      0.1200   1407.2274    703.0000     49.1287
           30          20      0.9667      0.1267   1407.9022    703.0000     49.1663
           30          21      0.9667      0.1333   1408.6123    703.0000     49.2060
           30          22      0.9667      0.1400   1409.3612    703.0000     49.2479
           30          23      0.9667      0.1467   1410.1532    703.0000     49.2923
           30          24      0.9667      0.1533   1410.9926    703.0000     49.3395
           30          25      0.9667      0.1600   1411.8843    703.0000     49.3897
           30          26      0.9667      0.1667   1412.8335    703.0000     49.4432
           30          27      0.9667      0.1733   1413.8454    703.0000     49.5004
           30          28      0.9667      0.1800   1414.9253    703.0000     49.5616
           30          29      0.9667      0.1867   1416.0778    703.0000     49.6271
           30          30      0.9667      0.1933   1417.3063    703.0000     49.6970
           30          31      0.9667      0.2000   1418.6116    703.0000     49.7715
           31           1      1.0000      0.0000   1397.1032    703.0000     48.5706
           31           2      1.0000      0.0067   1397.3842    703.0000     48.5859
           31           3      1.0000      0.0133   1397.6709    703.0000     48.6015
           31           4      1.0000      0.0200   1397.9637    703.0000     48.6175
           31           5      1.0000      0.0267   1398.2631    703.0000     48.6339
           31           6      1.0000      0.0333   1398.5696    703.0000     48.6506
           31           7      1.0000      0.0400   1398.8840    703.0000     48.6678
           31           8      1.0000      0.0467   1399.2068    703.0000     48.6855
           31           9      1.0000      0.0533   1399.5388    703.0000     48.7037
           31          10      1.0000      0.0600   1399.8810    703.0000     48.7224
           31          11      1.0000      0.0667   1400.2343    703.0000     48.7418
           31          12      1.0000      0.0733   1400.5998    703.0000     48.7619
           31          13      1.0000      0.0800   1400.9787    703.0000     48.7827
           31          14      1.0000      0.0867   1401.3726    703.0000     48.8043
           31          15      1.0000      0.0933   1401.7829    703.0000     48.8269
           31          16      1.0000      0.1000   1402.2116    703.0000     48.8506
           31          17      1.0000      0.1067   1402.6609    703.0000     48.8753
           31          18      1.0000      0.1133   1403.1331    703.0000     48.9014
           31          19      1.0000      0.1200   1403.6314    703.0000     48.9290
           31          20      1.0000      0.1267   1404.1592    703.0000     48.9582
           31          21      1.0000      0.1333   1404.7207    703.0000     48.9893
           31          22      1.0000      0.1400   1405.3210    703.0000     49.0226
           31          23      1.0000      0.1467   1405.9663    703.0000     49.0584
           31          24      1.0000      0.1533   1406.6646    703.0000     49.0973
           31          25      1.0000      0.1600   1407.4255    703.0000     49.1397
           31          26      1.0000      0.1667   1408.2615    703.0000     49.1864
           31          27      1.0000      0.1733   1409.1888    703.0000     49.2383
           31          28      1.0000      0.1800   1410.2286    703.0000     49.2966
           31          29      1.0000      0.1867   1411.4088    703.0000     49.3629
           31          30      1.0000      0.1933   1412.7673    703.0000     49.4395
           31          31      1.0000      0.2000   1414.3548    703.0000     49.5293
