 ====================================================================================
               Transient state solution for a 2D rectangular plate
                    for applications in steel reheating
                 e.g. Reheating furnaces for rolling processing
 ====================================================================================
 Author: Dickson Alves de Souza

 Based on lectures by professor Roberto Parreiras Tavares

 and book Numerical Heat Transfer and Fluid Flow
 by Suhas V. Patankar (1980)

 Federal University of Minas Gerais (UFMG)
 October 26th, 2017
 ====================================================================================
                              Input parameters:

 Lenght in X direction (meters):           1.0000
 Lenght in Y direction (meters):           0.2000
 Nodes in X direction:                         31
 Nodes in Y direction:                         31
 ====================================================================================

                       STAGE                1/  5
                       START Time:         0.0000
                       END Time:        1140.0000
                       Iterations:             2240

 ====================================================================================
 Temperature of fluid at left face (T left):             1223.1500
 Temperature of fluid at right face (T right):           1223.1500
 Temperature of fluid at bottom face (T bottom):         1223.1500
 Temperature of fluid at top face (T top):               1223.1500
 ------------------------------------------------------------------------------------
 Heat transfer coefficient at left face (H left):          50.0000
 Heat transfer coefficient at right face (H right):        50.0000
 Heat transfer coefficient at bottom face (H bottom):       8.0000
 Heat transfer coefficient at top face (H top):           150.0000
 ====================================================================================


 ====================================================================================

                       STAGE                2/  5
                       START Time:      1140.0000
                       END Time:        3060.0000
                       Iterations:             2240

 ====================================================================================
 Temperature of fluid at left face (T left):             1423.1500
 Temperature of fluid at right face (T right):           1423.1500
 Temperature of fluid at bottom face (T bottom):         1423.1500
 Temperature of fluid at top face (T top):               1423.1500
 ------------------------------------------------------------------------------------
 Heat transfer coefficient at left face (H left):          50.0000
 Heat transfer coefficient at right face (H right):        50.0000
 Heat transfer coefficient at bottom face (H bottom):       8.0000
 Heat transfer coefficient at top face (H top):           150.0000
 ====================================================================================


 ====================================================================================

                       STAGE                3/  5
                       START Time:      3060.0000
                       END Time:        4980.0000
                       Iterations:             2240

 ====================================================================================
 Temperature of fluid at left face (T left):             1513.1500
 Temperature of fluid at right face (T right):           1513.1500
 Temperature of fluid at bottom face (T bottom):         1513.1500
 Temperature of fluid at top face (T top):               1513.1500
 ------------------------------------------------------------------------------------
 Heat transfer coefficient at left face (H left):          50.0000
 Heat transfer coefficient at right face (H right):        50.0000
 Heat transfer coefficient at bottom face (H bottom):       8.0000
 Heat transfer coefficient at top face (H top):           150.0000
 ====================================================================================


 ====================================================================================

                       STAGE                4/  5
                       START Time:      4980.0000
                       END Time:        8400.0000
                       Iterations:             2240

 ====================================================================================
 Temperature of fluid at left face (T left):             1503.1500
 Temperature of fluid at right face (T right):           1503.1500
 Temperature of fluid at bottom face (T bottom):         1503.1500
 Temperature of fluid at top face (T top):               1523.1500
 ------------------------------------------------------------------------------------
 Heat transfer coefficient at left face (H left):          50.0000
 Heat transfer coefficient at right face (H right):        50.0000
 Heat transfer coefficient at bottom face (H bottom):       8.0000
 Heat transfer coefficient at top face (H top):           150.0000
 ====================================================================================


 ====================================================================================

                       STAGE                5/  5
                       START Time:      8400.0000
                       END Time:       18400.0000
                       Iterations:             2240

 ====================================================================================
 Temperature of fluid at left face (T left):             1393.1500
 Temperature of fluid at right face (T right):           1393.1500
 Temperature of fluid at bottom face (T bottom):         1393.1500
 Temperature of fluid at top face (T top):               1433.1500
 ------------------------------------------------------------------------------------
 Heat transfer coefficient at left face (H left):          50.0000
 Heat transfer coefficient at right face (H right):        50.0000
 Heat transfer coefficient at bottom face (H bottom):       8.0000
 Heat transfer coefficient at top face (H top):           150.0000
 ====================================================================================


 SOLUTION of LINEAR SYSTEM: TDMA (tri-diagonal matrix algorithm)
      ADI approach employed in solution.
 Tolerance:       0.0010

 ====================================================================================
                    Calculation Results
 Current time:    18000.000000000000       seconds
 Maximum Temperature :    1425.2879496071680
 Minimum Temperature :    1396.9512525103783
 Average(algebraic, non-weigthed) Temperature :    1411.8204746222461
 ====================================================================================
            I           J        X(m)        Y(m)        T(K)  Cp(J/kg.K) K(W/sq-m.K)
 ====================================================================================
            1           1      0.0000      0.0000   1396.9513    703.0000     48.5623
            1           2      0.0000      0.0067   1397.2218    703.0000     48.5771
            1           3      0.0000      0.0133   1397.4987    703.0000     48.5921
            1           4      0.0000      0.0200   1397.7824    703.0000     48.6076
            1           5      0.0000      0.0267   1398.0734    703.0000     48.6235
            1           6      0.0000      0.0333   1398.3722    703.0000     48.6398
            1           7      0.0000      0.0400   1398.6796    703.0000     48.6566
            1           8      0.0000      0.0467   1398.9962    703.0000     48.6739
            1           9      0.0000      0.0533   1399.3229    703.0000     48.6918
            1          10      0.0000      0.0600   1399.6605    703.0000     48.7103
            1          11      0.0000      0.0667   1400.0101    703.0000     48.7295
            1          12      0.0000      0.0733   1400.3727    703.0000     48.7494
            1          13      0.0000      0.0800   1400.7497    703.0000     48.7701
            1          14      0.0000      0.0867   1401.1424    703.0000     48.7917
            1          15      0.0000      0.0933   1401.5525    703.0000     48.8143
            1          16      0.0000      0.1000   1401.9818    703.0000     48.8379
            1          17      0.0000      0.1067   1402.4326    703.0000     48.8627
            1          18      0.0000      0.1133   1402.9072    703.0000     48.8889
            1          19      0.0000      0.1200   1403.4087    703.0000     48.9166
            1          20      0.0000      0.1267   1403.9405    703.0000     48.9461
            1          21      0.0000      0.1333   1404.5068    703.0000     48.9774
            1          22      0.0000      0.1400   1405.1128    703.0000     49.0110
            1          23      0.0000      0.1467   1405.7646    703.0000     49.0472
            1          24      0.0000      0.1533   1406.4700    703.0000     49.0865
            1          25      0.0000      0.1600   1407.2388    703.0000     49.1293
            1          26      0.0000      0.1667   1408.0834    703.0000     49.1764
            1          27      0.0000      0.1733   1409.0200    703.0000     49.2288
            1          28      0.0000      0.1800   1410.0697    703.0000     49.2877
            1          29      0.0000      0.1867   1411.2604    703.0000     49.3546
            1          30      0.0000      0.1933   1412.6298    703.0000     49.4317
            1          31      0.0000      0.2000   1414.2289    703.0000     49.5221
            2           1      0.0333      0.0000   1398.3230    703.0000     48.6371
            2           2      0.0333      0.0067   1398.6910    703.0000     48.6573
            2           3      0.0333      0.0133   1399.0670    703.0000     48.6778
            2           4      0.0333      0.0200   1399.4517    703.0000     48.6989
            2           5      0.0333      0.0267   1399.8458    703.0000     48.7205
            2           6      0.0333      0.0333   1400.2499    703.0000     48.7427
            2           7      0.0333      0.0400   1400.6649    703.0000     48.7654
            2           8      0.0333      0.0467   1401.0917    703.0000     48.7889
            2           9      0.0333      0.0533   1401.5311    703.0000     48.8131
            2          10      0.0333      0.0600   1401.9843    703.0000     48.8380
            2          11      0.0333      0.0667   1402.4524    703.0000     48.8638
            2          12      0.0333      0.0733   1402.9367    703.0000     48.8906
            2          13      0.0333      0.0800   1403.4386    703.0000     48.9183
            2          14      0.0333      0.0867   1403.9597    703.0000     48.9471
            2          15      0.0333      0.0933   1404.5018    703.0000     48.9771
            2          16      0.0333      0.1000   1405.0667    703.0000     49.0085
            2          17      0.0333      0.1067   1405.6566    703.0000     49.0412
            2          18      0.0333      0.1133   1406.2739    703.0000     49.0756
            2          19      0.0333      0.1200   1406.9213    703.0000     49.1116
            2          20      0.0333      0.1267   1407.6017    703.0000     49.1495
            2          21      0.0333      0.1333   1408.3184    703.0000     49.1896
            2          22      0.0333      0.1400   1409.0752    703.0000     49.2319
            2          23      0.0333      0.1467   1409.8760    703.0000     49.2768
            2          24      0.0333      0.1533   1410.7253    703.0000     49.3245
            2          25      0.0333      0.1600   1411.6279    703.0000     49.3753
            2          26      0.0333      0.1667   1412.5889    703.0000     49.4294
            2          27      0.0333      0.1733   1413.6135    703.0000     49.4873
            2          28      0.0333      0.1800   1414.7070    703.0000     49.5492
            2          29      0.0333      0.1867   1415.8739    703.0000     49.6155
            2          30      0.0333      0.1933   1417.1174    703.0000     49.6862
            2          31      0.0333      0.2000   1418.4385    703.0000     49.7616
            3           1      0.0667      0.0000   1399.4980    703.0000     48.7014
            3           2      0.0667      0.0067   1399.9488    703.0000     48.7261
            3           3      0.0667      0.0133   1400.4082    703.0000     48.7513
            3           4      0.0667      0.0200   1400.8766    703.0000     48.7771
            3           5      0.0667      0.0267   1401.3548    703.0000     48.8034
            3           6      0.0667      0.0333   1401.8435    703.0000     48.8303
            3           7      0.0667      0.0400   1402.3434    703.0000     48.8578
            3           8      0.0667      0.0467   1402.8554    703.0000     48.8861
            3           9      0.0667      0.0533   1403.3802    703.0000     48.9151
            3          10      0.0667      0.0600   1403.9190    703.0000     48.9449
            3          11      0.0667      0.0667   1404.4725    703.0000     48.9755
            3          12      0.0667      0.0733   1405.0420    703.0000     49.0071
            3          13      0.0667      0.0800   1405.6286    703.0000     49.0397
            3          14      0.0667      0.0867   1406.2334    703.0000     49.0733
            3          15      0.0667      0.0933   1406.8578    703.0000     49.1081
            3          16      0.0667      0.1000   1407.5031    703.0000     49.1440
            3          17      0.0667      0.1067   1408.1708    703.0000     49.1813
            3          18      0.0667      0.1133   1408.8624    703.0000     49.2200
            3          19      0.0667      0.1200   1409.5796    703.0000     49.2602
            3          20      0.0667      0.1267   1410.3239    703.0000     49.3019
            3          21      0.0667      0.1333   1411.0971    703.0000     49.3454
            3          22      0.0667      0.1400   1411.9009    703.0000     49.3906
            3          23      0.0667      0.1467   1412.7370    703.0000     49.4378
            3          24      0.0667      0.1533   1413.6070    703.0000     49.4869
            3          25      0.0667      0.1600   1414.5125    703.0000     49.5382
            3          26      0.0667      0.1667   1415.4546    703.0000     49.5916
            3          27      0.0667      0.1733   1416.4344    703.0000     49.6473
            3          28      0.0667      0.1800   1417.4525    703.0000     49.7053
            3          29      0.0667      0.1867   1418.5087    703.0000     49.7657
            3          30      0.0667      0.1933   1419.6022    703.0000     49.8282
            3          31      0.0667      0.2000   1420.7313    703.0000     49.8930
            4           1      0.1000      0.0000   1400.4649    703.0000     48.7545
            4           2      0.1000      0.0067   1400.9835    703.0000     48.7830
            4           3      0.1000      0.0133   1401.5100    703.0000     48.8119
            4           4      0.1000      0.0200   1402.0449    703.0000     48.8414
            4           5      0.1000      0.0267   1402.5888    703.0000     48.8714
            4           6      0.1000      0.0333   1403.1423    703.0000     48.9019
            4           7      0.1000      0.0400   1403.7061    703.0000     48.9331
            4           8      0.1000      0.0467   1404.2807    703.0000     48.9649
            4           9      0.1000      0.0533   1404.8669    703.0000     48.9974
            4          10      0.1000      0.0600   1405.4654    703.0000     49.0306
            4          11      0.1000      0.0667   1406.0768    703.0000     49.0646
            4          12      0.1000      0.0733   1406.7021    703.0000     49.0994
            4          13      0.1000      0.0800   1407.3419    703.0000     49.1351
            4          14      0.1000      0.0867   1407.9971    703.0000     49.1716
            4          15      0.1000      0.0933   1408.6684    703.0000     49.2091
            4          16      0.1000      0.1000   1409.3567    703.0000     49.2477
            4          17      0.1000      0.1067   1410.0629    703.0000     49.2873
            4          18      0.1000      0.1133   1410.7876    703.0000     49.3280
            4          19      0.1000      0.1200   1411.5319    703.0000     49.3698
            4          20      0.1000      0.1267   1412.2963    703.0000     49.4129
            4          21      0.1000      0.1333   1413.0816    703.0000     49.4572
            4          22      0.1000      0.1400   1413.8885    703.0000     49.5029
            4          23      0.1000      0.1467   1414.7175    703.0000     49.5498
            4          24      0.1000      0.1533   1415.5691    703.0000     49.5981
            4          25      0.1000      0.1600   1416.4435    703.0000     49.6479
            4          26      0.1000      0.1667   1417.3409    703.0000     49.6990
            4          27      0.1000      0.1733   1418.2610    703.0000     49.7515
            4          28      0.1000      0.1800   1419.2036    703.0000     49.8054
            4          29      0.1000      0.1867   1420.1680    703.0000     49.8607
            4          30      0.1000      0.1933   1421.1531    703.0000     49.9172
            4          31      0.1000      0.2000   1422.1577    703.0000     49.9751
            5           1      0.1333      0.0000   1401.2361    703.0000     48.7968
            5           2      0.1333      0.0067   1401.8085    703.0000     48.8283
            5           3      0.1333      0.0133   1402.3875    703.0000     48.8603
            5           4      0.1333      0.0200   1402.9737    703.0000     48.8926
            5           5      0.1333      0.0267   1403.5674    703.0000     48.9254
            5           6      0.1333      0.0333   1404.1693    703.0000     48.9587
            5           7      0.1333      0.0400   1404.7798    703.0000     48.9926
            5           8      0.1333      0.0467   1405.3993    703.0000     49.0269
            5           9      0.1333      0.0533   1406.0284    703.0000     49.0619
            5          10      0.1333      0.0600   1406.6676    703.0000     49.0975
            5          11      0.1333      0.0667   1407.3173    703.0000     49.1337
            5          12      0.1333      0.0733   1407.9781    703.0000     49.1706
            5          13      0.1333      0.0800   1408.6505    703.0000     49.2081
            5          14      0.1333      0.0867   1409.3349    703.0000     49.2465
            5          15      0.1333      0.0933   1410.0318    703.0000     49.2855
            5          16      0.1333      0.1000   1410.7417    703.0000     49.3254
            5          17      0.1333      0.1067   1411.4650    703.0000     49.3661
            5          18      0.1333      0.1133   1412.2020    703.0000     49.4076
            5          19      0.1333      0.1200   1412.9532    703.0000     49.4500
            5          20      0.1333      0.1267   1413.7189    703.0000     49.4933
            5          21      0.1333      0.1333   1414.4993    703.0000     49.5375
            5          22      0.1333      0.1400   1415.2946    703.0000     49.5826
            5          23      0.1333      0.1467   1416.1049    703.0000     49.6286
            5          24      0.1333      0.1533   1416.9302    703.0000     49.6756
            5          25      0.1333      0.1600   1417.7704    703.0000     49.7235
            5          26      0.1333      0.1667   1418.6253    703.0000     49.7723
            5          27      0.1333      0.1733   1419.4945    703.0000     49.8221
            5          28      0.1333      0.1800   1420.3777    703.0000     49.8727
            5          29      0.1333      0.1867   1421.2742    703.0000     49.9242
            5          30      0.1333      0.1933   1422.1832    703.0000     49.9765
            5          31      0.1333      0.2000   1423.1039    703.0000     50.0296
            6           1      0.1667      0.0000   1401.8371    703.0000     48.8299
            6           2      0.1667      0.0067   1402.4510    703.0000     48.8638
            6           3      0.1667      0.0133   1403.0704    703.0000     48.8979
            6           4      0.1667      0.0200   1403.6954    703.0000     48.9325
            6           5      0.1667      0.0267   1404.3265    703.0000     48.9674
            6           6      0.1667      0.0333   1404.9640    703.0000     49.0028
            6           7      0.1667      0.0400   1405.6083    703.0000     49.0385
            6           8      0.1667      0.0467   1406.2598    703.0000     49.0748
            6           9      0.1667      0.0533   1406.9187    703.0000     49.1115
            6          10      0.1667      0.0600   1407.5855    703.0000     49.1486
            6          11      0.1667      0.0667   1408.2604    703.0000     49.1863
            6          12      0.1667      0.0733   1408.9439    703.0000     49.2246
            6          13      0.1667      0.0800   1409.6360    703.0000     49.2633
            6          14      0.1667      0.0867   1410.3373    703.0000     49.3027
            6          15      0.1667      0.0933   1411.0479    703.0000     49.3426
            6          16      0.1667      0.1000   1411.7680    703.0000     49.3831
            6          17      0.1667      0.1067   1412.4979    703.0000     49.4243
            6          18      0.1667      0.1133   1413.2378    703.0000     49.4661
            6          19      0.1667      0.1200   1413.9877    703.0000     49.5085
            6          20      0.1667      0.1267   1414.7479    703.0000     49.5515
            6          21      0.1667      0.1333   1415.5183    703.0000     49.5953
            6          22      0.1667      0.1400   1416.2989    703.0000     49.6396
            6          23      0.1667      0.1467   1417.0897    703.0000     49.6847
            6          24      0.1667      0.1533   1417.8906    703.0000     49.7303
            6          25      0.1667      0.1600   1418.7014    703.0000     49.7767
            6          26      0.1667      0.1667   1419.5219    703.0000     49.8236
            6          27      0.1667      0.1733   1420.3517    703.0000     49.8712
            6          28      0.1667      0.1800   1421.1904    703.0000     49.9194
            6          29      0.1667      0.1867   1422.0376    703.0000     49.9681
            6          30      0.1667      0.1933   1422.8927    703.0000     50.0174
            6          31      0.1667      0.2000   1423.7551    703.0000     50.0672
            7           1      0.2000      0.0000   1402.2974    703.0000     48.8553
            7           2      0.2000      0.0067   1402.9431    703.0000     48.8909
            7           3      0.2000      0.0133   1403.5929    703.0000     48.9268
            7           4      0.2000      0.0200   1404.2471    703.0000     48.9630
            7           5      0.2000      0.0267   1404.9059    703.0000     48.9996
            7           6      0.2000      0.0333   1405.5695    703.0000     49.0364
            7           7      0.2000      0.0400   1406.2383    703.0000     49.0736
            7           8      0.2000      0.0467   1406.9125    703.0000     49.1111
            7           9      0.2000      0.0533   1407.5923    703.0000     49.1490
            7          10      0.2000      0.0600   1408.2779    703.0000     49.1873
            7          11      0.2000      0.0667   1408.9696    703.0000     49.2260
            7          12      0.2000      0.0733   1409.6676    703.0000     49.2651
            7          13      0.2000      0.0800   1410.3721    703.0000     49.3046
            7          14      0.2000      0.0867   1411.0832    703.0000     49.3446
            7          15      0.2000      0.0933   1411.8010    703.0000     49.3850
            7          16      0.2000      0.1000   1412.5257    703.0000     49.4259
            7          17      0.2000      0.1067   1413.2575    703.0000     49.4672
            7          18      0.2000      0.1133   1413.9962    703.0000     49.5090
            7          19      0.2000      0.1200   1414.7421    703.0000     49.5512
            7          20      0.2000      0.1267   1415.4951    703.0000     49.5939
            7          21      0.2000      0.1333   1416.2552    703.0000     49.6371
            7          22      0.2000      0.1400   1417.0223    703.0000     49.6808
            7          23      0.2000      0.1467   1417.7964    703.0000     49.7250
            7          24      0.2000      0.1533   1418.5772    703.0000     49.7696
            7          25      0.2000      0.1600   1419.3647    703.0000     49.8146
            7          26      0.2000      0.1667   1420.1586    703.0000     49.8601
            7          27      0.2000      0.1733   1420.9586    703.0000     49.9061
            7          28      0.2000      0.1800   1421.7645    703.0000     49.9524
            7          29      0.2000      0.1867   1422.5760    703.0000     49.9992
            7          30      0.2000      0.1933   1423.3925    703.0000     50.0463
            7          31      0.2000      0.2000   1424.2137    703.0000     50.0938
            8           1      0.2333      0.0000   1402.6455    703.0000     48.8745
            8           2      0.2333      0.0067   1403.3153    703.0000     48.9115
            8           3      0.2333      0.0133   1403.9879    703.0000     48.9487
            8           4      0.2333      0.0200   1404.6638    703.0000     48.9861
            8           5      0.2333      0.0267   1405.3430    703.0000     49.0238
            8           6      0.2333      0.0333   1406.0257    703.0000     49.0617
            8           7      0.2333      0.0400   1406.7122    703.0000     49.1000
            8           8      0.2333      0.0467   1407.4026    703.0000     49.1384
            8           9      0.2333      0.0533   1408.0971    703.0000     49.1772
            8          10      0.2333      0.0600   1408.7958    703.0000     49.2163
            8          11      0.2333      0.0667   1409.4989    703.0000     49.2557
            8          12      0.2333      0.0733   1410.2065    703.0000     49.2953
            8          13      0.2333      0.0800   1410.9188    703.0000     49.3354
            8          14      0.2333      0.0867   1411.6357    703.0000     49.3757
            8          15      0.2333      0.0933   1412.3574    703.0000     49.4164
            8          16      0.2333      0.1000   1413.0840    703.0000     49.4574
            8          17      0.2333      0.1067   1413.8155    703.0000     49.4987
            8          18      0.2333      0.1133   1414.5519    703.0000     49.5404
            8          19      0.2333      0.1200   1415.2933    703.0000     49.5825
            8          20      0.2333      0.1267   1416.0395    703.0000     49.6249
            8          21      0.2333      0.1333   1416.7906    703.0000     49.6676
            8          22      0.2333      0.1400   1417.5465    703.0000     49.7107
            8          23      0.2333      0.1467   1418.3071    703.0000     49.7541
            8          24      0.2333      0.1533   1419.0723    703.0000     49.7979
            8          25      0.2333      0.1600   1419.8419    703.0000     49.8420
            8          26      0.2333      0.1667   1420.6158    703.0000     49.8864
            8          27      0.2333      0.1733   1421.3937    703.0000     49.9311
            8          28      0.2333      0.1800   1422.1755    703.0000     49.9761
            8          29      0.2333      0.1867   1422.9609    703.0000     50.0214
            8          30      0.2333      0.1933   1423.7496    703.0000     50.0669
            8          31      0.2333      0.2000   1424.5413    703.0000     50.1127
            9           1      0.2667      0.0000   1402.9062    703.0000     48.8889
            9           2      0.2667      0.0067   1403.5939    703.0000     48.9269
            9           3      0.2667      0.0133   1404.2836    703.0000     48.9651
            9           4      0.2667      0.0200   1404.9755    703.0000     49.0034
            9           5      0.2667      0.0267   1405.6697    703.0000     49.0420
            9           6      0.2667      0.0333   1406.3664    703.0000     49.0807
            9           7      0.2667      0.0400   1407.0657    703.0000     49.1197
            9           8      0.2667      0.0467   1407.7678    703.0000     49.1588
            9           9      0.2667      0.0533   1408.4727    703.0000     49.1982
            9          10      0.2667      0.0600   1409.1806    703.0000     49.2378
            9          11      0.2667      0.0667   1409.8915    703.0000     49.2777
            9          12      0.2667      0.0733   1410.6056    703.0000     49.3177
            9          13      0.2667      0.0800   1411.3229    703.0000     49.3581
            9          14      0.2667      0.0867   1412.0434    703.0000     49.3987
            9          15      0.2667      0.0933   1412.7672    703.0000     49.4395
            9          16      0.2667      0.1000   1413.4944    703.0000     49.4806
            9          17      0.2667      0.1067   1414.2250    703.0000     49.5219
            9          18      0.2667      0.1133   1414.9589    703.0000     49.5635
            9          19      0.2667      0.1200   1415.6961    703.0000     49.6054
            9          20      0.2667      0.1267   1416.4367    703.0000     49.6475
            9          21      0.2667      0.1333   1417.1806    703.0000     49.6898
            9          22      0.2667      0.1400   1417.9276    703.0000     49.7325
            9          23      0.2667      0.1467   1418.6778    703.0000     49.7753
            9          24      0.2667      0.1533   1419.4310    703.0000     49.8184
            9          25      0.2667      0.1600   1420.1872    703.0000     49.8618
            9          26      0.2667      0.1667   1420.9462    703.0000     49.9054
            9          27      0.2667      0.1733   1421.7078    703.0000     49.9492
            9          28      0.2667      0.1800   1422.4719    703.0000     49.9932
            9          29      0.2667      0.1867   1423.2383    703.0000     50.0374
            9          30      0.2667      0.1933   1424.0068    703.0000     50.0818
            9          31      0.2667      0.2000   1424.7773    703.0000     50.1264
           10           1      0.3000      0.0000   1403.0996    703.0000     48.8996
           10           2      0.3000      0.0067   1403.8005    703.0000     48.9383
           10           3      0.3000      0.0133   1404.5028    703.0000     48.9772
           10           4      0.3000      0.0200   1405.2065    703.0000     49.0162
           10           5      0.3000      0.0267   1405.9117    703.0000     49.0554
           10           6      0.3000      0.0333   1406.6186    703.0000     49.0947
           10           7      0.3000      0.0400   1407.3272    703.0000     49.1342
           10           8      0.3000      0.0467   1408.0377    703.0000     49.1739
           10           9      0.3000      0.0533   1408.7501    703.0000     49.2137
           10          10      0.3000      0.0600   1409.4644    703.0000     49.2537
           10          11      0.3000      0.0667   1410.1808    703.0000     49.2939
           10          12      0.3000      0.0733   1410.8993    703.0000     49.3343
           10          13      0.3000      0.0800   1411.6199    703.0000     49.3748
           10          14      0.3000      0.0867   1412.3427    703.0000     49.4155
           10          15      0.3000      0.0933   1413.0677    703.0000     49.4565
           10          16      0.3000      0.1000   1413.7950    703.0000     49.4976
           10          17      0.3000      0.1067   1414.5245    703.0000     49.5389
           10          18      0.3000      0.1133   1415.2561    703.0000     49.5804
           10          19      0.3000      0.1200   1415.9900    703.0000     49.6221
           10          20      0.3000      0.1267   1416.7261    703.0000     49.6640
           10          21      0.3000      0.1333   1417.4643    703.0000     49.7060
           10          22      0.3000      0.1400   1418.2046    703.0000     49.7483
           10          23      0.3000      0.1467   1418.9470    703.0000     49.7907
           10          24      0.3000      0.1533   1419.6913    703.0000     49.8333
           10          25      0.3000      0.1600   1420.4374    703.0000     49.8761
           10          26      0.3000      0.1667   1421.1854    703.0000     49.9191
           10          27      0.3000      0.1733   1421.9350    703.0000     49.9622
           10          28      0.3000      0.1800   1422.6862    703.0000     50.0055
           10          29      0.3000      0.1867   1423.4388    703.0000     50.0490
           10          30      0.3000      0.1933   1424.1927    703.0000     50.0925
           10          31      0.3000      0.2000   1424.9477    703.0000     50.1363
           11           1      0.3333      0.0000   1403.2415    703.0000     48.9074
           11           2      0.3333      0.0067   1403.9521    703.0000     48.9467
           11           3      0.3333      0.0133   1404.6635    703.0000     48.9861
           11           4      0.3333      0.0200   1405.3758    703.0000     49.0256
           11           5      0.3333      0.0267   1406.0891    703.0000     49.0653
           11           6      0.3333      0.0333   1406.8033    703.0000     49.1050
           11           7      0.3333      0.0400   1407.5187    703.0000     49.1449
           11           8      0.3333      0.0467   1408.2351    703.0000     49.1849
           11           9      0.3333      0.0533   1408.9528    703.0000     49.2251
           11          10      0.3333      0.0600   1409.6718    703.0000     49.2653
           11          11      0.3333      0.0667   1410.3920    703.0000     49.3058
           11          12      0.3333      0.0733   1411.1135    703.0000     49.3463
           11          13      0.3333      0.0800   1411.8364    703.0000     49.3870
           11          14      0.3333      0.0867   1412.5607    703.0000     49.4278
           11          15      0.3333      0.0933   1413.2864    703.0000     49.4688
           11          16      0.3333      0.1000   1414.0135    703.0000     49.5099
           11          17      0.3333      0.1067   1414.7420    703.0000     49.5512
           11          18      0.3333      0.1133   1415.4719    703.0000     49.5926
           11          19      0.3333      0.1200   1416.2032    703.0000     49.6342
           11          20      0.3333      0.1267   1416.9358    703.0000     49.6759
           11          21      0.3333      0.1333   1417.6698    703.0000     49.7177
           11          22      0.3333      0.1400   1418.4050    703.0000     49.7597
           11          23      0.3333      0.1467   1419.1415    703.0000     49.8019
           11          24      0.3333      0.1533   1419.8792    703.0000     49.8441
           11          25      0.3333      0.1600   1420.6180    703.0000     49.8865
           11          26      0.3333      0.1667   1421.3579    703.0000     49.9290
           11          27      0.3333      0.1733   1422.0988    703.0000     49.9717
           11          28      0.3333      0.1800   1422.8406    703.0000     50.0144
           11          29      0.3333      0.1867   1423.5832    703.0000     50.0573
           11          30      0.3333      0.1933   1424.3266    703.0000     50.1003
           11          31      0.3333      0.2000   1425.0705    703.0000     50.1434
           12           1      0.3667      0.0000   1403.3437    703.0000     48.9131
           12           2      0.3667      0.0067   1404.0613    703.0000     48.9528
           12           3      0.3667      0.0133   1404.7794    703.0000     48.9925
           12           4      0.3667      0.0200   1405.4979    703.0000     49.0324
           12           5      0.3667      0.0267   1406.2168    703.0000     49.0724
           12           6      0.3667      0.0333   1406.9364    703.0000     49.1124
           12           7      0.3667      0.0400   1407.6565    703.0000     49.1526
           12           8      0.3667      0.0467   1408.3773    703.0000     49.1929
           12           9      0.3667      0.0533   1409.0987    703.0000     49.2332
           12          10      0.3667      0.0600   1409.8209    703.0000     49.2737
           12          11      0.3667      0.0667   1410.5438    703.0000     49.3143
           12          12      0.3667      0.0733   1411.2674    703.0000     49.3550
           12          13      0.3667      0.0800   1411.9919    703.0000     49.3958
           12          14      0.3667      0.0867   1412.7171    703.0000     49.4367
           12          15      0.3667      0.0933   1413.4432    703.0000     49.4777
           12          16      0.3667      0.1000   1414.1701    703.0000     49.5188
           12          17      0.3667      0.1067   1414.8978    703.0000     49.5600
           12          18      0.3667      0.1133   1415.6263    703.0000     49.6014
           12          19      0.3667      0.1200   1416.3556    703.0000     49.6429
           12          20      0.3667      0.1267   1417.0857    703.0000     49.6844
           12          21      0.3667      0.1333   1417.8166    703.0000     49.7261
           12          22      0.3667      0.1400   1418.5481    703.0000     49.7679
           12          23      0.3667      0.1467   1419.2804    703.0000     49.8098
           12          24      0.3667      0.1533   1420.0133    703.0000     49.8518
           12          25      0.3667      0.1600   1420.7469    703.0000     49.8939
           12          26      0.3667      0.1667   1421.4810    703.0000     49.9361
           12          27      0.3667      0.1733   1422.2156    703.0000     49.9784
           12          28      0.3667      0.1800   1422.9507    703.0000     50.0208
           12          29      0.3667      0.1867   1423.6861    703.0000     50.0633
           12          30      0.3667      0.1933   1424.4219    703.0000     50.1058
           12          31      0.3667      0.2000   1425.1580    703.0000     50.1485
           13           1      0.4000      0.0000   1403.4152    703.0000     48.9170
           13           2      0.4000      0.0067   1404.1377    703.0000     48.9570
           13           3      0.4000      0.0133   1404.8604    703.0000     48.9970
           13           4      0.4000      0.0200   1405.5832    703.0000     49.0371
           13           5      0.4000      0.0267   1406.3061    703.0000     49.0773
           13           6      0.4000      0.0333   1407.0293    703.0000     49.1176
           13           7      0.4000      0.0400   1407.7528    703.0000     49.1580
           13           8      0.4000      0.0467   1408.4765    703.0000     49.1984
           13           9      0.4000      0.0533   1409.2005    703.0000     49.2389
           13          10      0.4000      0.0600   1409.9249    703.0000     49.2795
           13          11      0.4000      0.0667   1410.6497    703.0000     49.3202
           13          12      0.4000      0.0733   1411.3748    703.0000     49.3610
           13          13      0.4000      0.0800   1412.1003    703.0000     49.4019
           13          14      0.4000      0.0867   1412.8262    703.0000     49.4428
           13          15      0.4000      0.0933   1413.5525    703.0000     49.4839
           13          16      0.4000      0.1000   1414.2792    703.0000     49.5250
           13          17      0.4000      0.1067   1415.0063    703.0000     49.5662
           13          18      0.4000      0.1133   1415.7338    703.0000     49.6075
           13          19      0.4000      0.1200   1416.4617    703.0000     49.6489
           13          20      0.4000      0.1267   1417.1900    703.0000     49.6904
           13          21      0.4000      0.1333   1417.9186    703.0000     49.7319
           13          22      0.4000      0.1400   1418.6476    703.0000     49.7736
           13          23      0.4000      0.1467   1419.3769    703.0000     49.8153
           13          24      0.4000      0.1533   1420.1065    703.0000     49.8571
           13          25      0.4000      0.1600   1420.8363    703.0000     49.8990
           13          26      0.4000      0.1667   1421.5664    703.0000     49.9410
           13          27      0.4000      0.1733   1422.2966    703.0000     49.9831
           13          28      0.4000      0.1800   1423.0270    703.0000     50.0252
           13          29      0.4000      0.1867   1423.7575    703.0000     50.0674
           13          30      0.4000      0.1933   1424.4881    703.0000     50.1096
           13          31      0.4000      0.2000   1425.2187    703.0000     50.1520
           14           1      0.4333      0.0000   1403.4622    703.0000     48.9196
           14           2      0.4333      0.0067   1404.1879    703.0000     48.9598
           14           3      0.4333      0.0133   1404.9136    703.0000     49.0000
           14           4      0.4333      0.0200   1405.6392    703.0000     49.0403
           14           5      0.4333      0.0267   1406.3648    703.0000     49.0806
           14           6      0.4333      0.0333   1407.0904    703.0000     49.1210
           14           7      0.4333      0.0400   1407.8160    703.0000     49.1615
           14           8      0.4333      0.0467   1408.5417    703.0000     49.2021
           14           9      0.4333      0.0533   1409.2674    703.0000     49.2427
           14          10      0.4333      0.0600   1409.9932    703.0000     49.2834
           14          11      0.4333      0.0667   1410.7192    703.0000     49.3241
           14          12      0.4333      0.0733   1411.4452    703.0000     49.3650
           14          13      0.4333      0.0800   1412.1714    703.0000     49.4059
           14          14      0.4333      0.0867   1412.8977    703.0000     49.4469
           14          15      0.4333      0.0933   1413.6241    703.0000     49.4879
           14          16      0.4333      0.1000   1414.3507    703.0000     49.5290
           14          17      0.4333      0.1067   1415.0774    703.0000     49.5702
           14          18      0.4333      0.1133   1415.8042    703.0000     49.6115
           14          19      0.4333      0.1200   1416.5312    703.0000     49.6529
           14          20      0.4333      0.1267   1417.2582    703.0000     49.6943
           14          21      0.4333      0.1333   1417.9854    703.0000     49.7358
           14          22      0.4333      0.1400   1418.7127    703.0000     49.7773
           14          23      0.4333      0.1467   1419.4400    703.0000     49.8189
           14          24      0.4333      0.1533   1420.1674    703.0000     49.8606
           14          25      0.4333      0.1600   1420.8948    703.0000     49.9024
           14          26      0.4333      0.1667   1421.6222    703.0000     49.9442
           14          27      0.4333      0.1733   1422.3496    703.0000     49.9861
           14          28      0.4333      0.1800   1423.0770    703.0000     50.0281
           14          29      0.4333      0.1867   1423.8042    703.0000     50.0701
           14          30      0.4333      0.1933   1424.5314    703.0000     50.1122
           14          31      0.4333      0.2000   1425.2583    703.0000     50.1543
           15           1      0.4667      0.0000   1403.4888    703.0000     48.9211
           15           2      0.4667      0.0067   1404.2164    703.0000     48.9613
           15           3      0.4667      0.0133   1404.9437    703.0000     49.0017
           15           4      0.4667      0.0200   1405.6710    703.0000     49.0420
           15           5      0.4667      0.0267   1406.3980    703.0000     49.0825
           15           6      0.4667      0.0333   1407.1250    703.0000     49.1230
           15           7      0.4667      0.0400   1407.8518    703.0000     49.1635
           15           8      0.4667      0.0467   1408.5786    703.0000     49.2041
           15           9      0.4667      0.0533   1409.3053    703.0000     49.2448
           15          10      0.4667      0.0600   1410.0319    703.0000     49.2855
           15          11      0.4667      0.0667   1410.7585    703.0000     49.3263
           15          12      0.4667      0.0733   1411.4851    703.0000     49.3672
           15          13      0.4667      0.0800   1412.2116    703.0000     49.4081
           15          14      0.4667      0.0867   1412.9381    703.0000     49.4491
           15          15      0.4667      0.0933   1413.6646    703.0000     49.4902
           15          16      0.4667      0.1000   1414.3911    703.0000     49.5313
           15          17      0.4667      0.1067   1415.1176    703.0000     49.5725
           15          18      0.4667      0.1133   1415.8440    703.0000     49.6138
           15          19      0.4667      0.1200   1416.5704    703.0000     49.6551
           15          20      0.4667      0.1267   1417.2968    703.0000     49.6965
           15          21      0.4667      0.1333   1418.0232    703.0000     49.7379
           15          22      0.4667      0.1400   1418.7495    703.0000     49.7794
           15          23      0.4667      0.1467   1419.4757    703.0000     49.8210
           15          24      0.4667      0.1533   1420.2018    703.0000     49.8626
           15          25      0.4667      0.1600   1420.9279    703.0000     49.9043
           15          26      0.4667      0.1667   1421.6538    703.0000     49.9460
           15          27      0.4667      0.1733   1422.3796    703.0000     49.9878
           15          28      0.4667      0.1800   1423.1052    703.0000     50.0297
           15          29      0.4667      0.1867   1423.8306    703.0000     50.0716
           15          30      0.4667      0.1933   1424.5558    703.0000     50.1136
           15          31      0.4667      0.2000   1425.2807    703.0000     50.1556
           16           1      0.5000      0.0000   1403.4974    703.0000     48.9215
           16           2      0.5000      0.0067   1404.2255    703.0000     48.9618
           16           3      0.5000      0.0133   1404.9535    703.0000     49.0022
           16           4      0.5000      0.0200   1405.6812    703.0000     49.0426
           16           5      0.5000      0.0267   1406.4088    703.0000     49.0831
           16           6      0.5000      0.0333   1407.1361    703.0000     49.1236
           16           7      0.5000      0.0400   1407.8634    703.0000     49.1642
           16           8      0.5000      0.0467   1408.5905    703.0000     49.2048
           16           9      0.5000      0.0533   1409.3175    703.0000     49.2455
           16          10      0.5000      0.0600   1410.0444    703.0000     49.2862
           16          11      0.5000      0.0667   1410.7712    703.0000     49.3271
           16          12      0.5000      0.0733   1411.4979    703.0000     49.3679
           16          13      0.5000      0.0800   1412.2246    703.0000     49.4089
           16          14      0.5000      0.0867   1412.9512    703.0000     49.4499
           16          15      0.5000      0.0933   1413.6777    703.0000     49.4909
           16          16      0.5000      0.1000   1414.4041    703.0000     49.5321
           16          17      0.5000      0.1067   1415.1305    703.0000     49.5733
           16          18      0.5000      0.1133   1415.8569    703.0000     49.6145
           16          19      0.5000      0.1200   1416.5831    703.0000     49.6558
           16          20      0.5000      0.1267   1417.3093    703.0000     49.6972
           16          21      0.5000      0.1333   1418.0354    703.0000     49.7386
           16          22      0.5000      0.1400   1418.7613    703.0000     49.7801
           16          23      0.5000      0.1467   1419.4872    703.0000     49.8216
           16          24      0.5000      0.1533   1420.2129    703.0000     49.8633
           16          25      0.5000      0.1600   1420.9385    703.0000     49.9049
           16          26      0.5000      0.1667   1421.6640    703.0000     49.9466
           16          27      0.5000      0.1733   1422.3892    703.0000     49.9884
           16          28      0.5000      0.1800   1423.1143    703.0000     50.0302
           16          29      0.5000      0.1867   1423.8391    703.0000     50.0721
           16          30      0.5000      0.1933   1424.5637    703.0000     50.1140
           16          31      0.5000      0.2000   1425.2879    703.0000     50.1560
           17           1      0.5333      0.0000   1403.4887    703.0000     48.9211
           17           2      0.5333      0.0067   1404.2163    703.0000     48.9613
           17           3      0.5333      0.0133   1404.9437    703.0000     49.0016
           17           4      0.5333      0.0200   1405.6709    703.0000     49.0420
           17           5      0.5333      0.0267   1406.3980    703.0000     49.0825
           17           6      0.5333      0.0333   1407.1249    703.0000     49.1229
           17           7      0.5333      0.0400   1407.8517    703.0000     49.1635
           17           8      0.5333      0.0467   1408.5785    703.0000     49.2041
           17           9      0.5333      0.0533   1409.3052    703.0000     49.2448
           17          10      0.5333      0.0600   1410.0318    703.0000     49.2855
           17          11      0.5333      0.0667   1410.7584    703.0000     49.3263
           17          12      0.5333      0.0733   1411.4850    703.0000     49.3672
           17          13      0.5333      0.0800   1412.2115    703.0000     49.4081
           17          14      0.5333      0.0867   1412.9380    703.0000     49.4491
           17          15      0.5333      0.0933   1413.6645    703.0000     49.4902
           17          16      0.5333      0.1000   1414.3910    703.0000     49.5313
           17          17      0.5333      0.1067   1415.1175    703.0000     49.5725
           17          18      0.5333      0.1133   1415.8439    703.0000     49.6138
           17          19      0.5333      0.1200   1416.5703    703.0000     49.6551
           17          20      0.5333      0.1267   1417.2967    703.0000     49.6965
           17          21      0.5333      0.1333   1418.0231    703.0000     49.7379
           17          22      0.5333      0.1400   1418.7494    703.0000     49.7794
           17          23      0.5333      0.1467   1419.4756    703.0000     49.8210
           17          24      0.5333      0.1533   1420.2018    703.0000     49.8626
           17          25      0.5333      0.1600   1420.9278    703.0000     49.9043
           17          26      0.5333      0.1667   1421.6537    703.0000     49.9460
           17          27      0.5333      0.1733   1422.3795    703.0000     49.9878
           17          28      0.5333      0.1800   1423.1051    703.0000     50.0297
           17          29      0.5333      0.1867   1423.8305    703.0000     50.0716
           17          30      0.5333      0.1933   1424.5557    703.0000     50.1136
           17          31      0.5333      0.2000   1425.2807    703.0000     50.1556
           18           1      0.5667      0.0000   1403.4621    703.0000     48.9196
           18           2      0.5667      0.0067   1404.1878    703.0000     48.9598
           18           3      0.5667      0.0133   1404.9135    703.0000     49.0000
           18           4      0.5667      0.0200   1405.6391    703.0000     49.0403
           18           5      0.5667      0.0267   1406.3647    703.0000     49.0806
           18           6      0.5667      0.0333   1407.0903    703.0000     49.1210
           18           7      0.5667      0.0400   1407.8159    703.0000     49.1615
           18           8      0.5667      0.0467   1408.5415    703.0000     49.2020
           18           9      0.5667      0.0533   1409.2673    703.0000     49.2427
           18          10      0.5667      0.0600   1409.9931    703.0000     49.2834
           18          11      0.5667      0.0667   1410.7190    703.0000     49.3241
           18          12      0.5667      0.0733   1411.4450    703.0000     49.3650
           18          13      0.5667      0.0800   1412.1712    703.0000     49.4059
           18          14      0.5667      0.0867   1412.8975    703.0000     49.4468
           18          15      0.5667      0.0933   1413.6239    703.0000     49.4879
           18          16      0.5667      0.1000   1414.3505    703.0000     49.5290
           18          17      0.5667      0.1067   1415.0772    703.0000     49.5702
           18          18      0.5667      0.1133   1415.8040    703.0000     49.6115
           18          19      0.5667      0.1200   1416.5310    703.0000     49.6528
           18          20      0.5667      0.1267   1417.2581    703.0000     49.6943
           18          21      0.5667      0.1333   1417.9853    703.0000     49.7357
           18          22      0.5667      0.1400   1418.7125    703.0000     49.7773
           18          23      0.5667      0.1467   1419.4399    703.0000     49.8189
           18          24      0.5667      0.1533   1420.1673    703.0000     49.8606
           18          25      0.5667      0.1600   1420.8947    703.0000     49.9024
           18          26      0.5667      0.1667   1421.6221    703.0000     49.9442
           18          27      0.5667      0.1733   1422.3495    703.0000     49.9861
           18          28      0.5667      0.1800   1423.0769    703.0000     50.0281
           18          29      0.5667      0.1867   1423.8041    703.0000     50.0701
           18          30      0.5667      0.1933   1424.5313    703.0000     50.1121
           18          31      0.5667      0.2000   1425.2582    703.0000     50.1543
           19           1      0.6000      0.0000   1403.4150    703.0000     48.9170
           19           2      0.6000      0.0067   1404.1376    703.0000     48.9570
           19           3      0.6000      0.0133   1404.8602    703.0000     48.9970
           19           4      0.6000      0.0200   1405.5830    703.0000     49.0371
           19           5      0.6000      0.0267   1406.3059    703.0000     49.0773
           19           6      0.6000      0.0333   1407.0291    703.0000     49.1176
           19           7      0.6000      0.0400   1407.7526    703.0000     49.1580
           19           8      0.6000      0.0467   1408.4763    703.0000     49.1984
           19           9      0.6000      0.0533   1409.2003    703.0000     49.2389
           19          10      0.6000      0.0600   1409.9247    703.0000     49.2795
           19          11      0.6000      0.0667   1410.6494    703.0000     49.3202
           19          12      0.6000      0.0733   1411.3745    703.0000     49.3610
           19          13      0.6000      0.0800   1412.1000    703.0000     49.4019
           19          14      0.6000      0.0867   1412.8259    703.0000     49.4428
           19          15      0.6000      0.0933   1413.5522    703.0000     49.4838
           19          16      0.6000      0.1000   1414.2789    703.0000     49.5250
           19          17      0.6000      0.1067   1415.0060    703.0000     49.5662
           19          18      0.6000      0.1133   1415.7336    703.0000     49.6075
           19          19      0.6000      0.1200   1416.4615    703.0000     49.6489
           19          20      0.6000      0.1267   1417.1897    703.0000     49.6904
           19          21      0.6000      0.1333   1417.9184    703.0000     49.7319
           19          22      0.6000      0.1400   1418.6474    703.0000     49.7736
           19          23      0.6000      0.1467   1419.3767    703.0000     49.8153
           19          24      0.6000      0.1533   1420.1063    703.0000     49.8571
           19          25      0.6000      0.1600   1420.8361    703.0000     49.8990
           19          26      0.6000      0.1667   1421.5662    703.0000     49.9410
           19          27      0.6000      0.1733   1422.2965    703.0000     49.9831
           19          28      0.6000      0.1800   1423.0269    703.0000     50.0252
           19          29      0.6000      0.1867   1423.7574    703.0000     50.0674
           19          30      0.6000      0.1933   1424.4880    703.0000     50.1096
           19          31      0.6000      0.2000   1425.2185    703.0000     50.1520
           20           1      0.6333      0.0000   1403.3435    703.0000     48.9130
           20           2      0.6333      0.0067   1404.0611    703.0000     48.9527
           20           3      0.6333      0.0133   1404.7792    703.0000     48.9925
           20           4      0.6333      0.0200   1405.4976    703.0000     49.0324
           20           5      0.6333      0.0267   1406.2166    703.0000     49.0724
           20           6      0.6333      0.0333   1406.9361    703.0000     49.1124
           20           7      0.6333      0.0400   1407.6562    703.0000     49.1526
           20           8      0.6333      0.0467   1408.3770    703.0000     49.1928
           20           9      0.6333      0.0533   1409.0984    703.0000     49.2332
           20          10      0.6333      0.0600   1409.8206    703.0000     49.2737
           20          11      0.6333      0.0667   1410.5435    703.0000     49.3143
           20          12      0.6333      0.0733   1411.2671    703.0000     49.3549
           20          13      0.6333      0.0800   1411.9916    703.0000     49.3957
           20          14      0.6333      0.0867   1412.7169    703.0000     49.4366
           20          15      0.6333      0.0933   1413.4429    703.0000     49.4777
           20          16      0.6333      0.1000   1414.1698    703.0000     49.5188
           20          17      0.6333      0.1067   1414.8975    703.0000     49.5600
           20          18      0.6333      0.1133   1415.6260    703.0000     49.6014
           20          19      0.6333      0.1200   1416.3553    703.0000     49.6428
           20          20      0.6333      0.1267   1417.0854    703.0000     49.6844
           20          21      0.6333      0.1333   1417.8163    703.0000     49.7261
           20          22      0.6333      0.1400   1418.5479    703.0000     49.7679
           20          23      0.6333      0.1467   1419.2801    703.0000     49.8098
           20          24      0.6333      0.1533   1420.0131    703.0000     49.8518
           20          25      0.6333      0.1600   1420.7466    703.0000     49.8939
           20          26      0.6333      0.1667   1421.4808    703.0000     49.9361
           20          27      0.6333      0.1733   1422.2154    703.0000     49.9784
           20          28      0.6333      0.1800   1422.9505    703.0000     50.0208
           20          29      0.6333      0.1867   1423.6860    703.0000     50.0632
           20          30      0.6333      0.1933   1424.4218    703.0000     50.1058
           20          31      0.6333      0.2000   1425.1578    703.0000     50.1484
           21           1      0.6667      0.0000   1403.2412    703.0000     48.9074
           21           2      0.6667      0.0067   1403.9519    703.0000     48.9467
           21           3      0.6667      0.0133   1404.6633    703.0000     48.9861
           21           4      0.6667      0.0200   1405.3756    703.0000     49.0256
           21           5      0.6667      0.0267   1406.0888    703.0000     49.0653
           21           6      0.6667      0.0333   1406.8030    703.0000     49.1050
           21           7      0.6667      0.0400   1407.5184    703.0000     49.1449
           21           8      0.6667      0.0467   1408.2348    703.0000     49.1849
           21           9      0.6667      0.0533   1408.9525    703.0000     49.2250
           21          10      0.6667      0.0600   1409.6714    703.0000     49.2653
           21          11      0.6667      0.0667   1410.3917    703.0000     49.3057
           21          12      0.6667      0.0733   1411.1132    703.0000     49.3463
           21          13      0.6667      0.0800   1411.8361    703.0000     49.3870
           21          14      0.6667      0.0867   1412.5604    703.0000     49.4278
           21          15      0.6667      0.0933   1413.2861    703.0000     49.4688
           21          16      0.6667      0.1000   1414.0132    703.0000     49.5099
           21          17      0.6667      0.1067   1414.7417    703.0000     49.5512
           21          18      0.6667      0.1133   1415.4716    703.0000     49.5926
           21          19      0.6667      0.1200   1416.2028    703.0000     49.6342
           21          20      0.6667      0.1267   1416.9355    703.0000     49.6759
           21          21      0.6667      0.1333   1417.6694    703.0000     49.7177
           21          22      0.6667      0.1400   1418.4047    703.0000     49.7597
           21          23      0.6667      0.1467   1419.1412    703.0000     49.8018
           21          24      0.6667      0.1533   1419.8789    703.0000     49.8441
           21          25      0.6667      0.1600   1420.6178    703.0000     49.8865
           21          26      0.6667      0.1667   1421.3577    703.0000     49.9290
           21          27      0.6667      0.1733   1422.0986    703.0000     49.9717
           21          28      0.6667      0.1800   1422.8404    703.0000     50.0144
           21          29      0.6667      0.1867   1423.5830    703.0000     50.0573
           21          30      0.6667      0.1933   1424.3264    703.0000     50.1003
           21          31      0.6667      0.2000   1425.0703    703.0000     50.1434
           22           1      0.7000      0.0000   1403.0994    703.0000     48.8996
           22           2      0.7000      0.0067   1403.8003    703.0000     48.9383
           22           3      0.7000      0.0133   1404.5025    703.0000     48.9772
           22           4      0.7000      0.0200   1405.2062    703.0000     49.0162
           22           5      0.7000      0.0267   1405.9114    703.0000     49.0554
           22           6      0.7000      0.0333   1406.6183    703.0000     49.0947
           22           7      0.7000      0.0400   1407.3269    703.0000     49.1342
           22           8      0.7000      0.0467   1408.0374    703.0000     49.1739
           22           9      0.7000      0.0533   1408.7497    703.0000     49.2137
           22          10      0.7000      0.0600   1409.4641    703.0000     49.2537
           22          11      0.7000      0.0667   1410.1804    703.0000     49.2939
           22          12      0.7000      0.0733   1410.8989    703.0000     49.3342
           22          13      0.7000      0.0800   1411.6196    703.0000     49.3748
           22          14      0.7000      0.0867   1412.3424    703.0000     49.4155
           22          15      0.7000      0.0933   1413.0674    703.0000     49.4564
           22          16      0.7000      0.1000   1413.7946    703.0000     49.4976
           22          17      0.7000      0.1067   1414.5241    703.0000     49.5389
           22          18      0.7000      0.1133   1415.2558    703.0000     49.5804
           22          19      0.7000      0.1200   1415.9897    703.0000     49.6221
           22          20      0.7000      0.1267   1416.7258    703.0000     49.6639
           22          21      0.7000      0.1333   1417.4640    703.0000     49.7060
           22          22      0.7000      0.1400   1418.2043    703.0000     49.7483
           22          23      0.7000      0.1467   1418.9467    703.0000     49.7907
           22          24      0.7000      0.1533   1419.6910    703.0000     49.8333
           22          25      0.7000      0.1600   1420.4371    703.0000     49.8761
           22          26      0.7000      0.1667   1421.1851    703.0000     49.9191
           22          27      0.7000      0.1733   1421.9347    703.0000     49.9622
           22          28      0.7000      0.1800   1422.6859    703.0000     50.0055
           22          29      0.7000      0.1867   1423.4385    703.0000     50.0489
           22          30      0.7000      0.1933   1424.1925    703.0000     50.0925
           22          31      0.7000      0.2000   1424.9475    703.0000     50.1363
           23           1      0.7333      0.0000   1402.9060    703.0000     48.8889
           23           2      0.7333      0.0067   1403.5937    703.0000     48.9269
           23           3      0.7333      0.0133   1404.2833    703.0000     48.9650
           23           4      0.7333      0.0200   1404.9752    703.0000     49.0034
           23           5      0.7333      0.0267   1405.6694    703.0000     49.0419
           23           6      0.7333      0.0333   1406.3661    703.0000     49.0807
           23           7      0.7333      0.0400   1407.0654    703.0000     49.1196
           23           8      0.7333      0.0467   1407.7675    703.0000     49.1588
           23           9      0.7333      0.0533   1408.4724    703.0000     49.1982
           23          10      0.7333      0.0600   1409.1803    703.0000     49.2378
           23          11      0.7333      0.0667   1409.8912    703.0000     49.2776
           23          12      0.7333      0.0733   1410.6052    703.0000     49.3177
           23          13      0.7333      0.0800   1411.3225    703.0000     49.3581
           23          14      0.7333      0.0867   1412.0430    703.0000     49.3986
           23          15      0.7333      0.0933   1412.7669    703.0000     49.4395
           23          16      0.7333      0.1000   1413.4941    703.0000     49.4806
           23          17      0.7333      0.1067   1414.2246    703.0000     49.5219
           23          18      0.7333      0.1133   1414.9585    703.0000     49.5635
           23          19      0.7333      0.1200   1415.6958    703.0000     49.6053
           23          20      0.7333      0.1267   1416.4364    703.0000     49.6475
           23          21      0.7333      0.1333   1417.1802    703.0000     49.6898
           23          22      0.7333      0.1400   1417.9273    703.0000     49.7324
           23          23      0.7333      0.1467   1418.6775    703.0000     49.7753
           23          24      0.7333      0.1533   1419.4308    703.0000     49.8184
           23          25      0.7333      0.1600   1420.1869    703.0000     49.8618
           23          26      0.7333      0.1667   1420.9459    703.0000     49.9053
           23          27      0.7333      0.1733   1421.7075    703.0000     49.9491
           23          28      0.7333      0.1800   1422.4716    703.0000     49.9932
           23          29      0.7333      0.1867   1423.2381    703.0000     50.0374
           23          30      0.7333      0.1933   1424.0066    703.0000     50.0818
           23          31      0.7333      0.2000   1424.7771    703.0000     50.1264
           24           1      0.7667      0.0000   1402.6453    703.0000     48.8745
           24           2      0.7667      0.0067   1403.3151    703.0000     48.9115
           24           3      0.7667      0.0133   1403.9877    703.0000     48.9487
           24           4      0.7667      0.0200   1404.6636    703.0000     48.9861
           24           5      0.7667      0.0267   1405.3427    703.0000     49.0238
           24           6      0.7667      0.0333   1406.0255    703.0000     49.0617
           24           7      0.7667      0.0400   1406.7120    703.0000     49.0999
           24           8      0.7667      0.0467   1407.4024    703.0000     49.1384
           24           9      0.7667      0.0533   1408.0968    703.0000     49.1772
           24          10      0.7667      0.0600   1408.7955    703.0000     49.2163
           24          11      0.7667      0.0667   1409.4986    703.0000     49.2556
           24          12      0.7667      0.0733   1410.2062    703.0000     49.2953
           24          13      0.7667      0.0800   1410.9185    703.0000     49.3353
           24          14      0.7667      0.0867   1411.6354    703.0000     49.3757
           24          15      0.7667      0.0933   1412.3571    703.0000     49.4163
           24          16      0.7667      0.1000   1413.0837    703.0000     49.4574
           24          17      0.7667      0.1067   1413.8152    703.0000     49.4987
           24          18      0.7667      0.1133   1414.5516    703.0000     49.5404
           24          19      0.7667      0.1200   1415.2930    703.0000     49.5825
           24          20      0.7667      0.1267   1416.0392    703.0000     49.6249
           24          21      0.7667      0.1333   1416.7904    703.0000     49.6676
           24          22      0.7667      0.1400   1417.5463    703.0000     49.7107
           24          23      0.7667      0.1467   1418.3069    703.0000     49.7541
           24          24      0.7667      0.1533   1419.0720    703.0000     49.7979
           24          25      0.7667      0.1600   1419.8417    703.0000     49.8420
           24          26      0.7667      0.1667   1420.6156    703.0000     49.8864
           24          27      0.7667      0.1733   1421.3935    703.0000     49.9311
           24          28      0.7667      0.1800   1422.1753    703.0000     49.9761
           24          29      0.7667      0.1867   1422.9607    703.0000     50.0214
           24          30      0.7667      0.1933   1423.7494    703.0000     50.0669
           24          31      0.7667      0.2000   1424.5412    703.0000     50.1127
           25           1      0.8000      0.0000   1402.2972    703.0000     48.8553
           25           2      0.8000      0.0067   1402.9430    703.0000     48.8909
           25           3      0.8000      0.0133   1403.5928    703.0000     48.9268
           25           4      0.8000      0.0200   1404.2469    703.0000     48.9630
           25           5      0.8000      0.0267   1404.9057    703.0000     48.9995
           25           6      0.8000      0.0333   1405.5693    703.0000     49.0364
           25           7      0.8000      0.0400   1406.2381    703.0000     49.0736
           25           8      0.8000      0.0467   1406.9123    703.0000     49.1111
           25           9      0.8000      0.0533   1407.5921    703.0000     49.1490
           25          10      0.8000      0.0600   1408.2777    703.0000     49.1873
           25          11      0.8000      0.0667   1408.9695    703.0000     49.2260
           25          12      0.8000      0.0733   1409.6674    703.0000     49.2651
           25          13      0.8000      0.0800   1410.3719    703.0000     49.3046
           25          14      0.8000      0.0867   1411.0830    703.0000     49.3446
           25          15      0.8000      0.0933   1411.8008    703.0000     49.3850
           25          16      0.8000      0.1000   1412.5255    703.0000     49.4258
           25          17      0.8000      0.1067   1413.2573    703.0000     49.4672
           25          18      0.8000      0.1133   1413.9960    703.0000     49.5090
           25          19      0.8000      0.1200   1414.7419    703.0000     49.5512
           25          20      0.8000      0.1267   1415.4949    703.0000     49.5939
           25          21      0.8000      0.1333   1416.2550    703.0000     49.6371
           25          22      0.8000      0.1400   1417.0221    703.0000     49.6808
           25          23      0.8000      0.1467   1417.7962    703.0000     49.7250
           25          24      0.8000      0.1533   1418.5770    703.0000     49.7696
           25          25      0.8000      0.1600   1419.3645    703.0000     49.8146
           25          26      0.8000      0.1667   1420.1584    703.0000     49.8601
           25          27      0.8000      0.1733   1420.9585    703.0000     49.9061
           25          28      0.8000      0.1800   1421.7644    703.0000     49.9524
           25          29      0.8000      0.1867   1422.5758    703.0000     49.9992
           25          30      0.8000      0.1933   1423.3924    703.0000     50.0463
           25          31      0.8000      0.2000   1424.2136    703.0000     50.0938
           26           1      0.8333      0.0000   1401.8370    703.0000     48.8299
           26           2      0.8333      0.0067   1402.4510    703.0000     48.8638
           26           3      0.8333      0.0133   1403.0703    703.0000     48.8979
           26           4      0.8333      0.0200   1403.6953    703.0000     48.9325
           26           5      0.8333      0.0267   1404.3264    703.0000     48.9674
           26           6      0.8333      0.0333   1404.9639    703.0000     49.0028
           26           7      0.8333      0.0400   1405.6083    703.0000     49.0385
           26           8      0.8333      0.0467   1406.2597    703.0000     49.0748
           26           9      0.8333      0.0533   1406.9187    703.0000     49.1115
           26          10      0.8333      0.0600   1407.5855    703.0000     49.1486
           26          11      0.8333      0.0667   1408.2604    703.0000     49.1863
           26          12      0.8333      0.0733   1408.9438    703.0000     49.2246
           26          13      0.8333      0.0800   1409.6360    703.0000     49.2633
           26          14      0.8333      0.0867   1410.3372    703.0000     49.3027
           26          15      0.8333      0.0933   1411.0478    703.0000     49.3426
           26          16      0.8333      0.1000   1411.7679    703.0000     49.3831
           26          17      0.8333      0.1067   1412.4979    703.0000     49.4243
           26          18      0.8333      0.1133   1413.2377    703.0000     49.4661
           26          19      0.8333      0.1200   1413.9877    703.0000     49.5085
           26          20      0.8333      0.1267   1414.7478    703.0000     49.5515
           26          21      0.8333      0.1333   1415.5182    703.0000     49.5953
           26          22      0.8333      0.1400   1416.2988    703.0000     49.6396
           26          23      0.8333      0.1467   1417.0897    703.0000     49.6847
           26          24      0.8333      0.1533   1417.8906    703.0000     49.7303
           26          25      0.8333      0.1600   1418.7014    703.0000     49.7767
           26          26      0.8333      0.1667   1419.5218    703.0000     49.8236
           26          27      0.8333      0.1733   1420.3516    703.0000     49.8712
           26          28      0.8333      0.1800   1421.1903    703.0000     49.9194
           26          29      0.8333      0.1867   1422.0375    703.0000     49.9681
           26          30      0.8333      0.1933   1422.8927    703.0000     50.0174
           26          31      0.8333      0.2000   1423.7551    703.0000     50.0672
           27           1      0.8667      0.0000   1401.2362    703.0000     48.7968
           27           2      0.8667      0.0067   1401.8086    703.0000     48.8284
           27           3      0.8667      0.0133   1402.3876    703.0000     48.8603
           27           4      0.8667      0.0200   1402.9738    703.0000     48.8926
           27           5      0.8667      0.0267   1403.5676    703.0000     48.9254
           27           6      0.8667      0.0333   1404.1694    703.0000     48.9587
           27           7      0.8667      0.0400   1404.7799    703.0000     48.9926
           27           8      0.8667      0.0467   1405.3995    703.0000     49.0269
           27           9      0.8667      0.0533   1406.0286    703.0000     49.0619
           27          10      0.8667      0.0600   1406.6677    703.0000     49.0975
           27          11      0.8667      0.0667   1407.3175    703.0000     49.1337
           27          12      0.8667      0.0733   1407.9783    703.0000     49.1706
           27          13      0.8667      0.0800   1408.6506    703.0000     49.2082
           27          14      0.8667      0.0867   1409.3350    703.0000     49.2465
           27          15      0.8667      0.0933   1410.0320    703.0000     49.2855
           27          16      0.8667      0.1000   1410.7418    703.0000     49.3254
           27          17      0.8667      0.1067   1411.4651    703.0000     49.3661
           27          18      0.8667      0.1133   1412.2022    703.0000     49.4076
           27          19      0.8667      0.1200   1412.9534    703.0000     49.4500
           27          20      0.8667      0.1267   1413.7190    703.0000     49.4933
           27          21      0.8667      0.1333   1414.4994    703.0000     49.5375
           27          22      0.8667      0.1400   1415.2947    703.0000     49.5826
           27          23      0.8667      0.1467   1416.1050    703.0000     49.6286
           27          24      0.8667      0.1533   1416.9303    703.0000     49.6756
           27          25      0.8667      0.1600   1417.7705    703.0000     49.7235
           27          26      0.8667      0.1667   1418.6254    703.0000     49.7723
           27          27      0.8667      0.1733   1419.4946    703.0000     49.8221
           27          28      0.8667      0.1800   1420.3778    703.0000     49.8727
           27          29      0.8667      0.1867   1421.2743    703.0000     49.9242
           27          30      0.8667      0.1933   1422.1833    703.0000     49.9765
           27          31      0.8667      0.2000   1423.1040    703.0000     50.0296
           28           1      0.9000      0.0000   1400.4652    703.0000     48.7545
           28           2      0.9000      0.0067   1400.9838    703.0000     48.7830
           28           3      0.9000      0.0133   1401.5103    703.0000     48.8119
           28           4      0.9000      0.0200   1402.0452    703.0000     48.8414
           28           5      0.9000      0.0267   1402.5891    703.0000     48.8714
           28           6      0.9000      0.0333   1403.1427    703.0000     48.9019
           28           7      0.9000      0.0400   1403.7064    703.0000     48.9331
           28           8      0.9000      0.0467   1404.2810    703.0000     48.9649
           28           9      0.9000      0.0533   1404.8672    703.0000     48.9974
           28          10      0.9000      0.0600   1405.4657    703.0000     49.0306
           28          11      0.9000      0.0667   1406.0772    703.0000     49.0646
           28          12      0.9000      0.0733   1406.7025    703.0000     49.0994
           28          13      0.9000      0.0800   1407.3423    703.0000     49.1351
           28          14      0.9000      0.0867   1407.9975    703.0000     49.1716
           28          15      0.9000      0.0933   1408.6688    703.0000     49.2092
           28          16      0.9000      0.1000   1409.3571    703.0000     49.2477
           28          17      0.9000      0.1067   1410.0633    703.0000     49.2873
           28          18      0.9000      0.1133   1410.7880    703.0000     49.3280
           28          19      0.9000      0.1200   1411.5322    703.0000     49.3699
           28          20      0.9000      0.1267   1412.2966    703.0000     49.4129
           28          21      0.9000      0.1333   1413.0820    703.0000     49.4573
           28          22      0.9000      0.1400   1413.8888    703.0000     49.5029
           28          23      0.9000      0.1467   1414.7179    703.0000     49.5498
           28          24      0.9000      0.1533   1415.5694    703.0000     49.5982
           28          25      0.9000      0.1600   1416.4438    703.0000     49.6479
           28          26      0.9000      0.1667   1417.3412    703.0000     49.6990
           28          27      0.9000      0.1733   1418.2613    703.0000     49.7515
           28          28      0.9000      0.1800   1419.2039    703.0000     49.8054
           28          29      0.9000      0.1867   1420.1682    703.0000     49.8607
           28          30      0.9000      0.1933   1421.1534    703.0000     49.9173
           28          31      0.9000      0.2000   1422.1579    703.0000     49.9751
           29           1      0.9333      0.0000   1399.4984    703.0000     48.7014
           29           2      0.9333      0.0067   1399.9493    703.0000     48.7262
           29           3      0.9333      0.0133   1400.4087    703.0000     48.7514
           29           4      0.9333      0.0200   1400.8772    703.0000     48.7771
           29           5      0.9333      0.0267   1401.3554    703.0000     48.8034
           29           6      0.9333      0.0333   1401.8441    703.0000     48.8303
           29           7      0.9333      0.0400   1402.3440    703.0000     48.8579
           29           8      0.9333      0.0467   1402.8560    703.0000     48.8861
           29           9      0.9333      0.0533   1403.3809    703.0000     48.9151
           29          10      0.9333      0.0600   1403.9196    703.0000     48.9449
           29          11      0.9333      0.0667   1404.4732    703.0000     48.9756
           29          12      0.9333      0.0733   1405.0427    703.0000     49.0071
           29          13      0.9333      0.0800   1405.6293    703.0000     49.0397
           29          14      0.9333      0.0867   1406.2341    703.0000     49.0733
           29          15      0.9333      0.0933   1406.8585    703.0000     49.1081
           29          16      0.9333      0.1000   1407.5038    703.0000     49.1441
           29          17      0.9333      0.1067   1408.1715    703.0000     49.1814
           29          18      0.9333      0.1133   1408.8631    703.0000     49.2200
           29          19      0.9333      0.1200   1409.5803    703.0000     49.2602
           29          20      0.9333      0.1267   1410.3246    703.0000     49.3020
           29          21      0.9333      0.1333   1411.0978    703.0000     49.3454
           29          22      0.9333      0.1400   1411.9015    703.0000     49.3907
           29          23      0.9333      0.1467   1412.7376    703.0000     49.4378
           29          24      0.9333      0.1533   1413.6076    703.0000     49.4870
           29          25      0.9333      0.1600   1414.5130    703.0000     49.5382
           29          26      0.9333      0.1667   1415.4551    703.0000     49.5917
           29          27      0.9333      0.1733   1416.4349    703.0000     49.6474
           29          28      0.9333      0.1800   1417.4530    703.0000     49.7054
           29          29      0.9333      0.1867   1418.5091    703.0000     49.7657
           29          30      0.9333      0.1933   1419.6026    703.0000     49.8283
           29          31      0.9333      0.2000   1420.7317    703.0000     49.8930
           30           1      0.9667      0.0000   1398.3237    703.0000     48.6372
           30           2      0.9667      0.0067   1398.6917    703.0000     48.6573
           30           3      0.9667      0.0133   1399.0678    703.0000     48.6779
           30           4      0.9667      0.0200   1399.4526    703.0000     48.6989
           30           5      0.9667      0.0267   1399.8467    703.0000     48.7205
           30           6      0.9667      0.0333   1400.2509    703.0000     48.7427
           30           7      0.9667      0.0400   1400.6659    703.0000     48.7655
           30           8      0.9667      0.0467   1401.0926    703.0000     48.7890
           30           9      0.9667      0.0533   1401.5321    703.0000     48.8131
           30          10      0.9667      0.0600   1401.9853    703.0000     48.8381
           30          11      0.9667      0.0667   1402.4534    703.0000     48.8639
           30          12      0.9667      0.0733   1402.9378    703.0000     48.8906
           30          13      0.9667      0.0800   1403.4397    703.0000     48.9184
           30          14      0.9667      0.0867   1403.9608    703.0000     48.9472
           30          15      0.9667      0.0933   1404.5029    703.0000     48.9772
           30          16      0.9667      0.1000   1405.0678    703.0000     49.0085
           30          17      0.9667      0.1067   1405.6577    703.0000     49.0413
           30          18      0.9667      0.1133   1406.2750    703.0000     49.0756
           30          19      0.9667      0.1200   1406.9223    703.0000     49.1117
           30          20      0.9667      0.1267   1407.6027    703.0000     49.1496
           30          21      0.9667      0.1333   1408.3194    703.0000     49.1896
           30          22      0.9667      0.1400   1409.0762    703.0000     49.2320
           30          23      0.9667      0.1467   1409.8770    703.0000     49.2768
           30          24      0.9667      0.1533   1410.7262    703.0000     49.3245
           30          25      0.9667      0.1600   1411.6288    703.0000     49.3753
           30          26      0.9667      0.1667   1412.5897    703.0000     49.4295
           30          27      0.9667      0.1733   1413.6143    703.0000     49.4874
           30          28      0.9667      0.1800   1414.7078    703.0000     49.5493
           30          29      0.9667      0.1867   1415.8746    703.0000     49.6155
           30          30      0.9667      0.1933   1417.1181    703.0000     49.6863
           30          31      0.9667      0.2000   1418.4391    703.0000     49.7617
           31           1      1.0000      0.0000   1396.9516    703.0000     48.5623
           31           2      1.0000      0.0067   1397.2222    703.0000     48.5771
           31           3      1.0000      0.0133   1397.4992    703.0000     48.5922
           31           4      1.0000      0.0200   1397.7828    703.0000     48.6076
           31           5      1.0000      0.0267   1398.0738    703.0000     48.6235
           31           6      1.0000      0.0333   1398.3727    703.0000     48.6399
           31           7      1.0000      0.0400   1398.6801    703.0000     48.6567
           31           8      1.0000      0.0467   1398.9967    703.0000     48.6740
           31           9      1.0000      0.0533   1399.3234    703.0000     48.6919
           31          10      1.0000      0.0600   1399.6611    703.0000     48.7104
           31          11      1.0000      0.0667   1400.0106    703.0000     48.7295
           31          12      1.0000      0.0733   1400.3733    703.0000     48.7494
           31          13      1.0000      0.0800   1400.7503    703.0000     48.7701
           31          14      1.0000      0.0867   1401.1430    703.0000     48.7917
           31          15      1.0000      0.0933   1401.5531    703.0000     48.8143
           31          16      1.0000      0.1000   1401.9824    703.0000     48.8379
           31          17      1.0000      0.1067   1402.4331    703.0000     48.8628
           31          18      1.0000      0.1133   1402.9077    703.0000     48.8890
           31          19      1.0000      0.1200   1403.4092    703.0000     48.9167
           31          20      1.0000      0.1267   1403.9410    703.0000     48.9461
           31          21      1.0000      0.1333   1404.5073    703.0000     48.9775
           31          22      1.0000      0.1400   1405.1133    703.0000     49.0111
           31          23      1.0000      0.1467   1405.7651    703.0000     49.0473
           31          24      1.0000      0.1533   1406.4705    703.0000     49.0865
           31          25      1.0000      0.1600   1407.2392    703.0000     49.1293
           31          26      1.0000      0.1667   1408.0839    703.0000     49.1765
           31          27      1.0000      0.1733   1409.0204    703.0000     49.2288
           31          28      1.0000      0.1800   1410.0700    703.0000     49.2877
           31          29      1.0000      0.1867   1411.2608    703.0000     49.3546
           31          30      1.0000      0.1933   1412.6302    703.0000     49.4318
           31          31      1.0000      0.2000   1414.2292    703.0000     49.5222
