 ====================================================================================
               Transient state solution for a 2D rectangular plate
                    for applications in steel reheating
                 e.g. Reheating furnaces for rolling processing
 ====================================================================================
 Author: Dickson Alves de Souza

 Based on lectures by professor Roberto Parreiras Tavares

 and book Numerical Heat Transfer and Fluid Flow
 by Suhas V. Patankar (1980)

 Federal University of Minas Gerais (UFMG)
 October 26th, 2017
 ====================================================================================
                              Input parameters:

 Lenght in X direction (meters):           1.0000
 Lenght in Y direction (meters):           0.2000
 Nodes in X direction:                         31
 Nodes in Y direction:                         31
 ====================================================================================

                       STAGE                1/  5
                       START Time:         0.0000
                       END Time:        1140.0000
                       Iterations:             2248

 ====================================================================================
 Temperature of fluid at left face (T left):             1223.1500
 Temperature of fluid at right face (T right):           1223.1500
 Temperature of fluid at bottom face (T bottom):         1223.1500
 Temperature of fluid at top face (T top):               1223.1500
 ------------------------------------------------------------------------------------
 Heat transfer coefficient at left face (H left):          50.0000
 Heat transfer coefficient at right face (H right):        50.0000
 Heat transfer coefficient at bottom face (H bottom):       8.0000
 Heat transfer coefficient at top face (H top):           150.0000
 ====================================================================================


 ====================================================================================

                       STAGE                2/  5
                       START Time:      1140.0000
                       END Time:        3060.0000
                       Iterations:             2248

 ====================================================================================
 Temperature of fluid at left face (T left):             1423.1500
 Temperature of fluid at right face (T right):           1423.1500
 Temperature of fluid at bottom face (T bottom):         1423.1500
 Temperature of fluid at top face (T top):               1423.1500
 ------------------------------------------------------------------------------------
 Heat transfer coefficient at left face (H left):          50.0000
 Heat transfer coefficient at right face (H right):        50.0000
 Heat transfer coefficient at bottom face (H bottom):       8.0000
 Heat transfer coefficient at top face (H top):           150.0000
 ====================================================================================


 ====================================================================================

                       STAGE                3/  5
                       START Time:      3060.0000
                       END Time:        4980.0000
                       Iterations:             2248

 ====================================================================================
 Temperature of fluid at left face (T left):             1513.1500
 Temperature of fluid at right face (T right):           1513.1500
 Temperature of fluid at bottom face (T bottom):         1513.1500
 Temperature of fluid at top face (T top):               1513.1500
 ------------------------------------------------------------------------------------
 Heat transfer coefficient at left face (H left):          50.0000
 Heat transfer coefficient at right face (H right):        50.0000
 Heat transfer coefficient at bottom face (H bottom):       8.0000
 Heat transfer coefficient at top face (H top):           150.0000
 ====================================================================================


 ====================================================================================

                       STAGE                4/  5
                       START Time:      4980.0000
                       END Time:        8400.0000
                       Iterations:             2248

 ====================================================================================
 Temperature of fluid at left face (T left):             1503.1500
 Temperature of fluid at right face (T right):           1503.1500
 Temperature of fluid at bottom face (T bottom):         1503.1500
 Temperature of fluid at top face (T top):               1523.1500
 ------------------------------------------------------------------------------------
 Heat transfer coefficient at left face (H left):          50.0000
 Heat transfer coefficient at right face (H right):        50.0000
 Heat transfer coefficient at bottom face (H bottom):       8.0000
 Heat transfer coefficient at top face (H top):           150.0000
 ====================================================================================


 ====================================================================================

                       STAGE                5/  5
                       START Time:      8400.0000
                       END Time:       18400.0000
                       Iterations:             2248

 ====================================================================================
 Temperature of fluid at left face (T left):             1393.1500
 Temperature of fluid at right face (T right):           1393.1500
 Temperature of fluid at bottom face (T bottom):         1393.1500
 Temperature of fluid at top face (T top):               1433.1500
 ------------------------------------------------------------------------------------
 Heat transfer coefficient at left face (H left):          50.0000
 Heat transfer coefficient at right face (H right):        50.0000
 Heat transfer coefficient at bottom face (H bottom):       8.0000
 Heat transfer coefficient at top face (H top):           150.0000
 ====================================================================================


 SOLUTION of LINEAR SYSTEM: TDMA (tri-diagonal matrix algorithm)
      ADI approach employed in solution.
 Tolerance:       0.0010

 ====================================================================================
                    Calculation Results
 Current time:    18400.000000000000       seconds
 Maximum Temperature :    1425.2754307304365
 Minimum Temperature :    1396.9474887495298
 Average(algebraic, non-weigthed) Temperature :    1411.8063863239445
 ====================================================================================
            I           J        X(m)        Y(m)        T(K)  Cp(J/kg.K) K(W/sq-m.K)
 ====================================================================================
            1           1      0.0000      0.0000   1396.9475    703.0000     48.5621
            1           2      0.0000      0.0067   1397.2178    703.0000     48.5768
            1           3      0.0000      0.0133   1397.4945    703.0000     48.5919
            1           4      0.0000      0.0200   1397.7779    703.0000     48.6074
            1           5      0.0000      0.0267   1398.0687    703.0000     48.6232
            1           6      0.0000      0.0333   1398.3673    703.0000     48.6396
            1           7      0.0000      0.0400   1398.6745    703.0000     48.6564
            1           8      0.0000      0.0467   1398.9910    703.0000     48.6737
            1           9      0.0000      0.0533   1399.3175    703.0000     48.6915
            1          10      0.0000      0.0600   1399.6551    703.0000     48.7100
            1          11      0.0000      0.0667   1400.0046    703.0000     48.7292
            1          12      0.0000      0.0733   1400.3671    703.0000     48.7491
            1          13      0.0000      0.0800   1400.7440    703.0000     48.7698
            1          14      0.0000      0.0867   1401.1367    703.0000     48.7914
            1          15      0.0000      0.0933   1401.5468    703.0000     48.8139
            1          16      0.0000      0.1000   1401.9761    703.0000     48.8376
            1          17      0.0000      0.1067   1402.4269    703.0000     48.8624
            1          18      0.0000      0.1133   1402.9016    703.0000     48.8886
            1          19      0.0000      0.1200   1403.4031    703.0000     48.9163
            1          20      0.0000      0.1267   1403.9351    703.0000     48.9458
            1          21      0.0000      0.1333   1404.5015    703.0000     48.9771
            1          22      0.0000      0.1400   1405.1076    703.0000     49.0107
            1          23      0.0000      0.1467   1405.7596    703.0000     49.0470
            1          24      0.0000      0.1533   1406.4652    703.0000     49.0862
            1          25      0.0000      0.1600   1407.2342    703.0000     49.1290
            1          26      0.0000      0.1667   1408.0790    703.0000     49.1762
            1          27      0.0000      0.1733   1409.0158    703.0000     49.2286
            1          28      0.0000      0.1800   1410.0657    703.0000     49.2874
            1          29      0.0000      0.1867   1411.2567    703.0000     49.3544
            1          30      0.0000      0.1933   1412.6264    703.0000     49.4315
            1          31      0.0000      0.2000   1414.2258    703.0000     49.5220
            2           1      0.0333      0.0000   1398.3179    703.0000     48.6369
            2           2      0.0333      0.0067   1398.6855    703.0000     48.6570
            2           3      0.0333      0.0133   1399.0612    703.0000     48.6775
            2           4      0.0333      0.0200   1399.4456    703.0000     48.6986
            2           5      0.0333      0.0267   1399.8394    703.0000     48.7201
            2           6      0.0333      0.0333   1400.2433    703.0000     48.7423
            2           7      0.0333      0.0400   1400.6580    703.0000     48.7651
            2           8      0.0333      0.0467   1401.0846    703.0000     48.7885
            2           9      0.0333      0.0533   1401.5238    703.0000     48.8127
            2          10      0.0333      0.0600   1401.9768    703.0000     48.8376
            2          11      0.0333      0.0667   1402.4448    703.0000     48.8634
            2          12      0.0333      0.0733   1402.9290    703.0000     48.8901
            2          13      0.0333      0.0800   1403.4309    703.0000     48.9179
            2          14      0.0333      0.0867   1403.9520    703.0000     48.9467
            2          15      0.0333      0.0933   1404.4940    703.0000     48.9767
            2          16      0.0333      0.1000   1405.0589    703.0000     49.0080
            2          17      0.0333      0.1067   1405.6489    703.0000     49.0408
            2          18      0.0333      0.1133   1406.2663    703.0000     49.0751
            2          19      0.0333      0.1200   1406.9138    703.0000     49.1112
            2          20      0.0333      0.1267   1407.5943    703.0000     49.1491
            2          21      0.0333      0.1333   1408.3112    703.0000     49.1892
            2          22      0.0333      0.1400   1409.0682    703.0000     49.2315
            2          23      0.0333      0.1467   1409.8692    703.0000     49.2764
            2          24      0.0333      0.1533   1410.7187    703.0000     49.3241
            2          25      0.0333      0.1600   1411.6216    703.0000     49.3749
            2          26      0.0333      0.1667   1412.5829    703.0000     49.4291
            2          27      0.0333      0.1733   1413.6079    703.0000     49.4870
            2          28      0.0333      0.1800   1414.7016    703.0000     49.5489
            2          29      0.0333      0.1867   1415.8689    703.0000     49.6152
            2          30      0.0333      0.1933   1417.1128    703.0000     49.6860
            2          31      0.0333      0.2000   1418.4343    703.0000     49.7614
            3           1      0.0667      0.0000   1399.4916    703.0000     48.7011
            3           2      0.0667      0.0067   1399.9420    703.0000     48.7258
            3           3      0.0667      0.0133   1400.4009    703.0000     48.7509
            3           4      0.0667      0.0200   1400.8690    703.0000     48.7767
            3           5      0.0667      0.0267   1401.3468    703.0000     48.8029
            3           6      0.0667      0.0333   1401.8352    703.0000     48.8298
            3           7      0.0667      0.0400   1402.3348    703.0000     48.8574
            3           8      0.0667      0.0467   1402.8465    703.0000     48.8856
            3           9      0.0667      0.0533   1403.3712    703.0000     48.9146
            3          10      0.0667      0.0600   1403.9097    703.0000     48.9444
            3          11      0.0667      0.0667   1404.4631    703.0000     48.9750
            3          12      0.0667      0.0733   1405.0325    703.0000     49.0066
            3          13      0.0667      0.0800   1405.6190    703.0000     49.0391
            3          14      0.0667      0.0867   1406.2237    703.0000     49.0728
            3          15      0.0667      0.0933   1406.8481    703.0000     49.1075
            3          16      0.0667      0.1000   1407.4934    703.0000     49.1435
            3          17      0.0667      0.1067   1408.1612    703.0000     49.1808
            3          18      0.0667      0.1133   1408.8529    703.0000     49.2195
            3          19      0.0667      0.1200   1409.5702    703.0000     49.2596
            3          20      0.0667      0.1267   1410.3147    703.0000     49.3014
            3          21      0.0667      0.1333   1411.0881    703.0000     49.3449
            3          22      0.0667      0.1400   1411.8922    703.0000     49.3901
            3          23      0.0667      0.1467   1412.7285    703.0000     49.4373
            3          24      0.0667      0.1533   1413.5988    703.0000     49.4865
            3          25      0.0667      0.1600   1414.5046    703.0000     49.5378
            3          26      0.0667      0.1667   1415.4471    703.0000     49.5912
            3          27      0.0667      0.1733   1416.4273    703.0000     49.6469
            3          28      0.0667      0.1800   1417.4458    703.0000     49.7050
            3          29      0.0667      0.1867   1418.5024    703.0000     49.7653
            3          30      0.0667      0.1933   1419.5964    703.0000     49.8279
            3          31      0.0667      0.2000   1420.7260    703.0000     49.8927
            4           1      0.1000      0.0000   1400.4573    703.0000     48.7540
            4           2      0.1000      0.0067   1400.9754    703.0000     48.7825
            4           3      0.1000      0.0133   1401.5014    703.0000     48.8114
            4           4      0.1000      0.0200   1402.0358    703.0000     48.8409
            4           5      0.1000      0.0267   1402.5793    703.0000     48.8708
            4           6      0.1000      0.0333   1403.1324    703.0000     48.9014
            4           7      0.1000      0.0400   1403.6958    703.0000     48.9325
            4           8      0.1000      0.0467   1404.2701    703.0000     48.9643
            4           9      0.1000      0.0533   1404.8561    703.0000     48.9968
            4          10      0.1000      0.0600   1405.4543    703.0000     49.0300
            4          11      0.1000      0.0667   1406.0656    703.0000     49.0640
            4          12      0.1000      0.0733   1406.6907    703.0000     49.0988
            4          13      0.1000      0.0800   1407.3305    703.0000     49.1344
            4          14      0.1000      0.0867   1407.9856    703.0000     49.1710
            4          15      0.1000      0.0933   1408.6569    703.0000     49.2085
            4          16      0.1000      0.1000   1409.3452    703.0000     49.2470
            4          17      0.1000      0.1067   1410.0515    703.0000     49.2866
            4          18      0.1000      0.1133   1410.7763    703.0000     49.3273
            4          19      0.1000      0.1200   1411.5207    703.0000     49.3692
            4          20      0.1000      0.1267   1412.2853    703.0000     49.4123
            4          21      0.1000      0.1333   1413.0709    703.0000     49.4566
            4          22      0.1000      0.1400   1413.8781    703.0000     49.5023
            4          23      0.1000      0.1467   1414.7074    703.0000     49.5493
            4          24      0.1000      0.1533   1415.5594    703.0000     49.5976
            4          25      0.1000      0.1600   1416.4342    703.0000     49.6473
            4          26      0.1000      0.1667   1417.3320    703.0000     49.6985
            4          27      0.1000      0.1733   1418.2526    703.0000     49.7510
            4          28      0.1000      0.1800   1419.1957    703.0000     49.8050
            4          29      0.1000      0.1867   1420.1606    703.0000     49.8602
            4          30      0.1000      0.1933   1421.1462    703.0000     49.9169
            4          31      0.1000      0.2000   1422.1514    703.0000     49.9747
            5           1      0.1333      0.0000   1401.2274    703.0000     48.7964
            5           2      0.1333      0.0067   1401.7991    703.0000     48.8278
            5           3      0.1333      0.0133   1402.3775    703.0000     48.8597
            5           4      0.1333      0.0200   1402.9632    703.0000     48.8920
            5           5      0.1333      0.0267   1403.5565    703.0000     48.9248
            5           6      0.1333      0.0333   1404.1579    703.0000     48.9581
            5           7      0.1333      0.0400   1404.7680    703.0000     48.9919
            5           8      0.1333      0.0467   1405.3872    703.0000     49.0263
            5           9      0.1333      0.0533   1406.0160    703.0000     49.0612
            5          10      0.1333      0.0600   1406.6549    703.0000     49.0968
            5          11      0.1333      0.0667   1407.3044    703.0000     49.1330
            5          12      0.1333      0.0733   1407.9651    703.0000     49.1698
            5          13      0.1333      0.0800   1408.6373    703.0000     49.2074
            5          14      0.1333      0.0867   1409.3216    703.0000     49.2457
            5          15      0.1333      0.0933   1410.0185    703.0000     49.2848
            5          16      0.1333      0.1000   1410.7285    703.0000     49.3247
            5          17      0.1333      0.1067   1411.4518    703.0000     49.3653
            5          18      0.1333      0.1133   1412.1890    703.0000     49.4069
            5          19      0.1333      0.1200   1412.9404    703.0000     49.4493
            5          20      0.1333      0.1267   1413.7063    703.0000     49.4926
            5          21      0.1333      0.1333   1414.4870    703.0000     49.5368
            5          22      0.1333      0.1400   1415.2826    703.0000     49.5819
            5          23      0.1333      0.1467   1416.0933    703.0000     49.6279
            5          24      0.1333      0.1533   1416.9190    703.0000     49.6749
            5          25      0.1333      0.1600   1417.7596    703.0000     49.7229
            5          26      0.1333      0.1667   1418.6150    703.0000     49.7717
            5          27      0.1333      0.1733   1419.4848    703.0000     49.8215
            5          28      0.1333      0.1800   1420.3686    703.0000     49.8722
            5          29      0.1333      0.1867   1421.2657    703.0000     49.9237
            5          30      0.1333      0.1933   1422.1753    703.0000     49.9761
            5          31      0.1333      0.2000   1423.0966    703.0000     50.0292
            6           1      0.1667      0.0000   1401.8272    703.0000     48.8294
            6           2      0.1667      0.0067   1402.4405    703.0000     48.8632
            6           3      0.1667      0.0133   1403.0592    703.0000     48.8973
            6           4      0.1667      0.0200   1403.6836    703.0000     48.9318
            6           5      0.1667      0.0267   1404.3142    703.0000     48.9668
            6           6      0.1667      0.0333   1404.9512    703.0000     49.0021
            6           7      0.1667      0.0400   1405.5951    703.0000     49.0378
            6           8      0.1667      0.0467   1406.2462    703.0000     49.0740
            6           9      0.1667      0.0533   1406.9048    703.0000     49.1107
            6          10      0.1667      0.0600   1407.5713    703.0000     49.1478
            6          11      0.1667      0.0667   1408.2460    703.0000     49.1855
            6          12      0.1667      0.0733   1408.9292    703.0000     49.2237
            6          13      0.1667      0.0800   1409.6212    703.0000     49.2625
            6          14      0.1667      0.0867   1410.3224    703.0000     49.3018
            6          15      0.1667      0.0933   1411.0330    703.0000     49.3418
            6          16      0.1667      0.1000   1411.7532    703.0000     49.3823
            6          17      0.1667      0.1067   1412.4832    703.0000     49.4235
            6          18      0.1667      0.1133   1413.2232    703.0000     49.4652
            6          19      0.1667      0.1200   1413.9733    703.0000     49.5077
            6          20      0.1667      0.1267   1414.7337    703.0000     49.5507
            6          21      0.1667      0.1333   1415.5045    703.0000     49.5945
            6          22      0.1667      0.1400   1416.2855    703.0000     49.6389
            6          23      0.1667      0.1467   1417.0767    703.0000     49.6839
            6          24      0.1667      0.1533   1417.8781    703.0000     49.7296
            6          25      0.1667      0.1600   1418.6894    703.0000     49.7760
            6          26      0.1667      0.1667   1419.5104    703.0000     49.8230
            6          27      0.1667      0.1733   1420.3408    703.0000     49.8706
            6          28      0.1667      0.1800   1421.1801    703.0000     49.9188
            6          29      0.1667      0.1867   1422.0280    703.0000     49.9676
            6          30      0.1667      0.1933   1422.8838    703.0000     50.0169
            6          31      0.1667      0.2000   1423.7470    703.0000     50.0668
            7           1      0.2000      0.0000   1402.2865    703.0000     48.8547
            7           2      0.2000      0.0067   1402.9316    703.0000     48.8903
            7           3      0.2000      0.0133   1403.5807    703.0000     48.9262
            7           4      0.2000      0.0200   1404.2342    703.0000     48.9623
            7           5      0.2000      0.0267   1404.8923    703.0000     48.9988
            7           6      0.2000      0.0333   1405.5554    703.0000     49.0356
            7           7      0.2000      0.0400   1406.2237    703.0000     49.0728
            7           8      0.2000      0.0467   1406.8975    703.0000     49.1103
            7           9      0.2000      0.0533   1407.5769    703.0000     49.1482
            7          10      0.2000      0.0600   1408.2622    703.0000     49.1864
            7          11      0.2000      0.0667   1408.9537    703.0000     49.2251
            7          12      0.2000      0.0733   1409.6515    703.0000     49.2642
            7          13      0.2000      0.0800   1410.3558    703.0000     49.3037
            7          14      0.2000      0.0867   1411.0668    703.0000     49.3437
            7          15      0.2000      0.0933   1411.7846    703.0000     49.3841
            7          16      0.2000      0.1000   1412.5094    703.0000     49.4249
            7          17      0.2000      0.1067   1413.2413    703.0000     49.4663
            7          18      0.2000      0.1133   1413.9802    703.0000     49.5081
            7          19      0.2000      0.1200   1414.7263    703.0000     49.5503
            7          20      0.2000      0.1267   1415.4796    703.0000     49.5931
            7          21      0.2000      0.1333   1416.2400    703.0000     49.6363
            7          22      0.2000      0.1400   1417.0075    703.0000     49.6800
            7          23      0.2000      0.1467   1417.7820    703.0000     49.7241
            7          24      0.2000      0.1533   1418.5634    703.0000     49.7688
            7          25      0.2000      0.1600   1419.3514    703.0000     49.8139
            7          26      0.2000      0.1667   1420.1459    703.0000     49.8594
            7          27      0.2000      0.1733   1420.9466    703.0000     49.9054
            7          28      0.2000      0.1800   1421.7532    703.0000     49.9518
            7          29      0.2000      0.1867   1422.5654    703.0000     49.9986
            7          30      0.2000      0.1933   1423.3827    703.0000     50.0457
            7          31      0.2000      0.2000   1424.2048    703.0000     50.0932
            8           1      0.2333      0.0000   1402.6338    703.0000     48.8738
            8           2      0.2333      0.0067   1403.3027    703.0000     48.9108
            8           3      0.2333      0.0133   1403.9747    703.0000     48.9480
            8           4      0.2333      0.0200   1404.6498    703.0000     48.9854
            8           5      0.2333      0.0267   1405.3284    703.0000     49.0230
            8           6      0.2333      0.0333   1406.0105    703.0000     49.0609
            8           7      0.2333      0.0400   1406.6965    703.0000     49.0991
            8           8      0.2333      0.0467   1407.3864    703.0000     49.1375
            8           9      0.2333      0.0533   1408.0805    703.0000     49.1763
            8          10      0.2333      0.0600   1408.7789    703.0000     49.2153
            8          11      0.2333      0.0667   1409.4817    703.0000     49.2547
            8          12      0.2333      0.0733   1410.1891    703.0000     49.2944
            8          13      0.2333      0.0800   1410.9011    703.0000     49.3344
            8          14      0.2333      0.0867   1411.6180    703.0000     49.3747
            8          15      0.2333      0.0933   1412.3397    703.0000     49.4154
            8          16      0.2333      0.1000   1413.0664    703.0000     49.4564
            8          17      0.2333      0.1067   1413.7980    703.0000     49.4977
            8          18      0.2333      0.1133   1414.5346    703.0000     49.5395
            8          19      0.2333      0.1200   1415.2762    703.0000     49.5815
            8          20      0.2333      0.1267   1416.0227    703.0000     49.6239
            8          21      0.2333      0.1333   1416.7742    703.0000     49.6667
            8          22      0.2333      0.1400   1417.5305    703.0000     49.7098
            8          23      0.2333      0.1467   1418.2916    703.0000     49.7532
            8          24      0.2333      0.1533   1419.0573    703.0000     49.7970
            8          25      0.2333      0.1600   1419.8276    703.0000     49.8412
            8          26      0.2333      0.1667   1420.6021    703.0000     49.8856
            8          27      0.2333      0.1733   1421.3807    703.0000     49.9303
            8          28      0.2333      0.1800   1422.1633    703.0000     49.9754
            8          29      0.2333      0.1867   1422.9495    703.0000     50.0207
            8          30      0.2333      0.1933   1423.7390    703.0000     50.0663
            8          31      0.2333      0.2000   1424.5316    703.0000     50.1122
            9           1      0.2667      0.0000   1402.8937    703.0000     48.8882
            9           2      0.2667      0.0067   1403.5805    703.0000     48.9261
            9           3      0.2667      0.0133   1404.2694    703.0000     48.9643
            9           4      0.2667      0.0200   1404.9605    703.0000     49.0026
            9           5      0.2667      0.0267   1405.6541    703.0000     49.0411
            9           6      0.2667      0.0333   1406.3502    703.0000     49.0798
            9           7      0.2667      0.0400   1407.0489    703.0000     49.1187
            9           8      0.2667      0.0467   1407.7505    703.0000     49.1578
            9           9      0.2667      0.0533   1408.4550    703.0000     49.1972
            9          10      0.2667      0.0600   1409.1625    703.0000     49.2368
            9          11      0.2667      0.0667   1409.8731    703.0000     49.2766
            9          12      0.2667      0.0733   1410.5869    703.0000     49.3167
            9          13      0.2667      0.0800   1411.3040    703.0000     49.3570
            9          14      0.2667      0.0867   1412.0245    703.0000     49.3976
            9          15      0.2667      0.0933   1412.7483    703.0000     49.4384
            9          16      0.2667      0.1000   1413.4756    703.0000     49.4795
            9          17      0.2667      0.1067   1414.2062    703.0000     49.5209
            9          18      0.2667      0.1133   1414.9403    703.0000     49.5625
            9          19      0.2667      0.1200   1415.6779    703.0000     49.6043
            9          20      0.2667      0.1267   1416.4188    703.0000     49.6465
            9          21      0.2667      0.1333   1417.1630    703.0000     49.6888
            9          22      0.2667      0.1400   1417.9105    703.0000     49.7315
            9          23      0.2667      0.1467   1418.6613    703.0000     49.7744
            9          24      0.2667      0.1533   1419.4151    703.0000     49.8175
            9          25      0.2667      0.1600   1420.1719    703.0000     49.8609
            9          26      0.2667      0.1667   1420.9316    703.0000     49.9045
            9          27      0.2667      0.1733   1421.6939    703.0000     49.9484
            9          28      0.2667      0.1800   1422.4588    703.0000     49.9924
            9          29      0.2667      0.1867   1423.2261    703.0000     50.0367
            9          30      0.2667      0.1933   1423.9955    703.0000     50.0811
            9          31      0.2667      0.2000   1424.7669    703.0000     50.1258
           10           1      0.3000      0.0000   1403.0864    703.0000     48.8988
           10           2      0.3000      0.0067   1403.7864    703.0000     48.9375
           10           3      0.3000      0.0133   1404.4878    703.0000     48.9764
           10           4      0.3000      0.0200   1405.1907    703.0000     49.0154
           10           5      0.3000      0.0267   1405.8952    703.0000     49.0545
           10           6      0.3000      0.0333   1406.6015    703.0000     49.0938
           10           7      0.3000      0.0400   1407.3095    703.0000     49.1332
           10           8      0.3000      0.0467   1408.0194    703.0000     49.1729
           10           9      0.3000      0.0533   1408.7313    703.0000     49.2127
           10          10      0.3000      0.0600   1409.4453    703.0000     49.2526
           10          11      0.3000      0.0667   1410.1614    703.0000     49.2928
           10          12      0.3000      0.0733   1410.8796    703.0000     49.3331
           10          13      0.3000      0.0800   1411.6001    703.0000     49.3737
           10          14      0.3000      0.0867   1412.3228    703.0000     49.4144
           10          15      0.3000      0.0933   1413.0478    703.0000     49.4553
           10          16      0.3000      0.1000   1413.7751    703.0000     49.4964
           10          17      0.3000      0.1067   1414.5047    703.0000     49.5378
           10          18      0.3000      0.1133   1415.2366    703.0000     49.5793
           10          19      0.3000      0.1200   1415.9708    703.0000     49.6210
           10          20      0.3000      0.1267   1416.7072    703.0000     49.6629
           10          21      0.3000      0.1333   1417.4458    703.0000     49.7050
           10          22      0.3000      0.1400   1418.1866    703.0000     49.7472
           10          23      0.3000      0.1467   1418.9295    703.0000     49.7897
           10          24      0.3000      0.1533   1419.6744    703.0000     49.8324
           10          25      0.3000      0.1600   1420.4213    703.0000     49.8752
           10          26      0.3000      0.1667   1421.1699    703.0000     49.9182
           10          27      0.3000      0.1733   1421.9204    703.0000     49.9614
           10          28      0.3000      0.1800   1422.6724    703.0000     50.0047
           10          29      0.3000      0.1867   1423.4259    703.0000     50.0482
           10          30      0.3000      0.1933   1424.1807    703.0000     50.0919
           10          31      0.3000      0.2000   1424.9368    703.0000     50.1356
           11           1      0.3333      0.0000   1403.2277    703.0000     48.9066
           11           2      0.3333      0.0067   1403.9374    703.0000     48.9459
           11           3      0.3333      0.0133   1404.6479    703.0000     48.9852
           11           4      0.3333      0.0200   1405.3594    703.0000     49.0247
           11           5      0.3333      0.0267   1406.0719    703.0000     49.0643
           11           6      0.3333      0.0333   1406.7854    703.0000     49.1040
           11           7      0.3333      0.0400   1407.5001    703.0000     49.1439
           11           8      0.3333      0.0467   1408.2161    703.0000     49.1839
           11           9      0.3333      0.0533   1408.9333    703.0000     49.2240
           11          10      0.3333      0.0600   1409.6518    703.0000     49.2642
           11          11      0.3333      0.0667   1410.3717    703.0000     49.3046
           11          12      0.3333      0.0733   1411.0930    703.0000     49.3451
           11          13      0.3333      0.0800   1411.8157    703.0000     49.3858
           11          14      0.3333      0.0867   1412.5399    703.0000     49.4267
           11          15      0.3333      0.0933   1413.2656    703.0000     49.4676
           11          16      0.3333      0.1000   1413.9927    703.0000     49.5088
           11          17      0.3333      0.1067   1414.7214    703.0000     49.5500
           11          18      0.3333      0.1133   1415.4515    703.0000     49.5915
           11          19      0.3333      0.1200   1416.1830    703.0000     49.6330
           11          20      0.3333      0.1267   1416.9160    703.0000     49.6748
           11          21      0.3333      0.1333   1417.6504    703.0000     49.7166
           11          22      0.3333      0.1400   1418.3862    703.0000     49.7587
           11          23      0.3333      0.1467   1419.1233    703.0000     49.8008
           11          24      0.3333      0.1533   1419.8616    703.0000     49.8431
           11          25      0.3333      0.1600   1420.6012    703.0000     49.8855
           11          26      0.3333      0.1667   1421.3418    703.0000     49.9281
           11          27      0.3333      0.1733   1422.0835    703.0000     49.9708
           11          28      0.3333      0.1800   1422.8262    703.0000     50.0136
           11          29      0.3333      0.1867   1423.5698    703.0000     50.0565
           11          30      0.3333      0.1933   1424.3141    703.0000     50.0996
           11          31      0.3333      0.2000   1425.0591    703.0000     50.1427
           12           1      0.3667      0.0000   1403.3294    703.0000     48.9123
           12           2      0.3667      0.0067   1404.0461    703.0000     48.9519
           12           3      0.3667      0.0133   1404.7632    703.0000     48.9916
           12           4      0.3667      0.0200   1405.4808    703.0000     49.0315
           12           5      0.3667      0.0267   1406.1990    703.0000     49.0714
           12           6      0.3667      0.0333   1406.9178    703.0000     49.1114
           12           7      0.3667      0.0400   1407.6373    703.0000     49.1515
           12           8      0.3667      0.0467   1408.3575    703.0000     49.1918
           12           9      0.3667      0.0533   1409.0785    703.0000     49.2321
           12          10      0.3667      0.0600   1409.8002    703.0000     49.2725
           12          11      0.3667      0.0667   1410.5228    703.0000     49.3131
           12          12      0.3667      0.0733   1411.2462    703.0000     49.3538
           12          13      0.3667      0.0800   1411.9704    703.0000     49.3945
           12          14      0.3667      0.0867   1412.6956    703.0000     49.4354
           12          15      0.3667      0.0933   1413.4217    703.0000     49.4765
           12          16      0.3667      0.1000   1414.1486    703.0000     49.5176
           12          17      0.3667      0.1067   1414.8764    703.0000     49.5588
           12          18      0.3667      0.1133   1415.6052    703.0000     49.6002
           12          19      0.3667      0.1200   1416.3348    703.0000     49.6417
           12          20      0.3667      0.1267   1417.0652    703.0000     49.6833
           12          21      0.3667      0.1333   1417.7965    703.0000     49.7250
           12          22      0.3667      0.1400   1418.5287    703.0000     49.7668
           12          23      0.3667      0.1467   1419.2615    703.0000     49.8087
           12          24      0.3667      0.1533   1419.9951    703.0000     49.8508
           12          25      0.3667      0.1600   1420.7294    703.0000     49.8929
           12          26      0.3667      0.1667   1421.4643    703.0000     49.9351
           12          27      0.3667      0.1733   1422.1998    703.0000     49.9775
           12          28      0.3667      0.1800   1422.9358    703.0000     50.0199
           12          29      0.3667      0.1867   1423.6722    703.0000     50.0625
           12          30      0.3667      0.1933   1424.4090    703.0000     50.1051
           12          31      0.3667      0.2000   1425.1462    703.0000     50.1478
           13           1      0.4000      0.0000   1403.4005    703.0000     48.9162
           13           2      0.4000      0.0067   1404.1221    703.0000     48.9561
           13           3      0.4000      0.0133   1404.8438    703.0000     48.9961
           13           4      0.4000      0.0200   1405.5657    703.0000     49.0362
           13           5      0.4000      0.0267   1406.2879    703.0000     49.0763
           13           6      0.4000      0.0333   1407.0103    703.0000     49.1166
           13           7      0.4000      0.0400   1407.7331    703.0000     49.1569
           13           8      0.4000      0.0467   1408.4562    703.0000     49.1973
           13           9      0.4000      0.0533   1409.1798    703.0000     49.2378
           13          10      0.4000      0.0600   1409.9037    703.0000     49.2783
           13          11      0.4000      0.0667   1410.6281    703.0000     49.3190
           13          12      0.4000      0.0733   1411.3529    703.0000     49.3598
           13          13      0.4000      0.0800   1412.0783    703.0000     49.4006
           13          14      0.4000      0.0867   1412.8041    703.0000     49.4416
           13          15      0.4000      0.0933   1413.5303    703.0000     49.4826
           13          16      0.4000      0.1000   1414.2571    703.0000     49.5237
           13          17      0.4000      0.1067   1414.9844    703.0000     49.5650
           13          18      0.4000      0.1133   1415.7121    703.0000     49.6063
           13          19      0.4000      0.1200   1416.4403    703.0000     49.6477
           13          20      0.4000      0.1267   1417.1690    703.0000     49.6892
           13          21      0.4000      0.1333   1417.8981    703.0000     49.7308
           13          22      0.4000      0.1400   1418.6276    703.0000     49.7724
           13          23      0.4000      0.1467   1419.3575    703.0000     49.8142
           13          24      0.4000      0.1533   1420.0878    703.0000     49.8561
           13          25      0.4000      0.1600   1420.8184    703.0000     49.8980
           13          26      0.4000      0.1667   1421.5493    703.0000     49.9400
           13          27      0.4000      0.1733   1422.2804    703.0000     49.9821
           13          28      0.4000      0.1800   1423.0118    703.0000     50.0243
           13          29      0.4000      0.1867   1423.7433    703.0000     50.0666
           13          30      0.4000      0.1933   1424.4749    703.0000     50.1089
           13          31      0.4000      0.2000   1425.2065    703.0000     50.1513
           14           1      0.4333      0.0000   1403.4473    703.0000     48.9188
           14           2      0.4333      0.0067   1404.1720    703.0000     48.9589
           14           3      0.4333      0.0133   1404.8967    703.0000     48.9990
           14           4      0.4333      0.0200   1405.6214    703.0000     49.0393
           14           5      0.4333      0.0267   1406.3462    703.0000     49.0796
           14           6      0.4333      0.0333   1407.0710    703.0000     49.1199
           14           7      0.4333      0.0400   1407.7960    703.0000     49.1604
           14           8      0.4333      0.0467   1408.5210    703.0000     49.2009
           14           9      0.4333      0.0533   1409.2463    703.0000     49.2415
           14          10      0.4333      0.0600   1409.9716    703.0000     49.2822
           14          11      0.4333      0.0667   1410.6972    703.0000     49.3229
           14          12      0.4333      0.0733   1411.4230    703.0000     49.3637
           14          13      0.4333      0.0800   1412.1490    703.0000     49.4046
           14          14      0.4333      0.0867   1412.8751    703.0000     49.4456
           14          15      0.4333      0.0933   1413.6016    703.0000     49.4866
           14          16      0.4333      0.1000   1414.3282    703.0000     49.5278
           14          17      0.4333      0.1067   1415.0550    703.0000     49.5690
           14          18      0.4333      0.1133   1415.7821    703.0000     49.6103
           14          19      0.4333      0.1200   1416.5094    703.0000     49.6516
           14          20      0.4333      0.1267   1417.2369    703.0000     49.6930
           14          21      0.4333      0.1333   1417.9645    703.0000     49.7346
           14          22      0.4333      0.1400   1418.6923    703.0000     49.7762
           14          23      0.4333      0.1467   1419.4203    703.0000     49.8178
           14          24      0.4333      0.1533   1420.1484    703.0000     49.8595
           14          25      0.4333      0.1600   1420.8766    703.0000     49.9014
           14          26      0.4333      0.1667   1421.6048    703.0000     49.9432
           14          27      0.4333      0.1733   1422.3331    703.0000     49.9852
           14          28      0.4333      0.1800   1423.0614    703.0000     50.0272
           14          29      0.4333      0.1867   1423.7897    703.0000     50.0692
           14          30      0.4333      0.1933   1424.5179    703.0000     50.1114
           14          31      0.4333      0.2000   1425.2460    703.0000     50.1536
           15           1      0.4667      0.0000   1403.4737    703.0000     48.9202
           15           2      0.4667      0.0067   1404.2002    703.0000     48.9604
           15           3      0.4667      0.0133   1404.9267    703.0000     49.0007
           15           4      0.4667      0.0200   1405.6530    703.0000     49.0410
           15           5      0.4667      0.0267   1406.3792    703.0000     49.0814
           15           6      0.4667      0.0333   1407.1054    703.0000     49.1219
           15           7      0.4667      0.0400   1407.8316    703.0000     49.1624
           15           8      0.4667      0.0467   1408.5577    703.0000     49.2030
           15           9      0.4667      0.0533   1409.2839    703.0000     49.2436
           15          10      0.4667      0.0600   1410.0101    703.0000     49.2843
           15          11      0.4667      0.0667   1410.7363    703.0000     49.3251
           15          12      0.4667      0.0733   1411.4626    703.0000     49.3659
           15          13      0.4667      0.0800   1412.1889    703.0000     49.4069
           15          14      0.4667      0.0867   1412.9154    703.0000     49.4479
           15          15      0.4667      0.0933   1413.6418    703.0000     49.4889
           15          16      0.4667      0.1000   1414.3684    703.0000     49.5300
           15          17      0.4667      0.1067   1415.0950    703.0000     49.5712
           15          18      0.4667      0.1133   1415.8217    703.0000     49.6125
           15          19      0.4667      0.1200   1416.5484    703.0000     49.6538
           15          20      0.4667      0.1267   1417.2752    703.0000     49.6952
           15          21      0.4667      0.1333   1418.0020    703.0000     49.7367
           15          22      0.4667      0.1400   1418.7289    703.0000     49.7782
           15          23      0.4667      0.1467   1419.4558    703.0000     49.8198
           15          24      0.4667      0.1533   1420.1826    703.0000     49.8615
           15          25      0.4667      0.1600   1420.9094    703.0000     49.9032
           15          26      0.4667      0.1667   1421.6362    703.0000     49.9450
           15          27      0.4667      0.1733   1422.3629    703.0000     49.9869
           15          28      0.4667      0.1800   1423.0895    703.0000     50.0288
           15          29      0.4667      0.1867   1423.8159    703.0000     50.0708
           15          30      0.4667      0.1933   1424.5422    703.0000     50.1128
           15          31      0.4667      0.2000   1425.2682    703.0000     50.1549
           16           1      0.5000      0.0000   1403.4823    703.0000     48.9207
           16           2      0.5000      0.0067   1404.2094    703.0000     48.9609
           16           3      0.5000      0.0133   1404.9363    703.0000     49.0012
           16           4      0.5000      0.0200   1405.6632    703.0000     49.0416
           16           5      0.5000      0.0267   1406.3899    703.0000     49.0820
           16           6      0.5000      0.0333   1407.1165    703.0000     49.1225
           16           7      0.5000      0.0400   1407.8431    703.0000     49.1630
           16           8      0.5000      0.0467   1408.5696    703.0000     49.2036
           16           9      0.5000      0.0533   1409.2961    703.0000     49.2443
           16          10      0.5000      0.0600   1410.0225    703.0000     49.2850
           16          11      0.5000      0.0667   1410.7490    703.0000     49.3258
           16          12      0.5000      0.0733   1411.4754    703.0000     49.3667
           16          13      0.5000      0.0800   1412.2019    703.0000     49.4076
           16          14      0.5000      0.0867   1412.9283    703.0000     49.4486
           16          15      0.5000      0.0933   1413.6548    703.0000     49.4896
           16          16      0.5000      0.1000   1414.3814    703.0000     49.5308
           16          17      0.5000      0.1067   1415.1079    703.0000     49.5720
           16          18      0.5000      0.1133   1415.8345    703.0000     49.6132
           16          19      0.5000      0.1200   1416.5610    703.0000     49.6546
           16          20      0.5000      0.1267   1417.2876    703.0000     49.6959
           16          21      0.5000      0.1333   1418.0142    703.0000     49.7374
           16          22      0.5000      0.1400   1418.7407    703.0000     49.7789
           16          23      0.5000      0.1467   1419.4672    703.0000     49.8205
           16          24      0.5000      0.1533   1420.1937    703.0000     49.8621
           16          25      0.5000      0.1600   1420.9200    703.0000     49.9038
           16          26      0.5000      0.1667   1421.6463    703.0000     49.9456
           16          27      0.5000      0.1733   1422.3725    703.0000     49.9874
           16          28      0.5000      0.1800   1423.0985    703.0000     50.0293
           16          29      0.5000      0.1867   1423.8244    703.0000     50.0712
           16          30      0.5000      0.1933   1424.5500    703.0000     50.1132
           16          31      0.5000      0.2000   1425.2754    703.0000     50.1553
           17           1      0.5333      0.0000   1403.4737    703.0000     48.9202
           17           2      0.5333      0.0067   1404.2002    703.0000     48.9604
           17           3      0.5333      0.0133   1404.9266    703.0000     49.0007
           17           4      0.5333      0.0200   1405.6529    703.0000     49.0410
           17           5      0.5333      0.0267   1406.3792    703.0000     49.0814
           17           6      0.5333      0.0333   1407.1054    703.0000     49.1219
           17           7      0.5333      0.0400   1407.8315    703.0000     49.1624
           17           8      0.5333      0.0467   1408.5577    703.0000     49.2030
           17           9      0.5333      0.0533   1409.2838    703.0000     49.2436
           17          10      0.5333      0.0600   1410.0100    703.0000     49.2843
           17          11      0.5333      0.0667   1410.7363    703.0000     49.3251
           17          12      0.5333      0.0733   1411.4625    703.0000     49.3659
           17          13      0.5333      0.0800   1412.1889    703.0000     49.4069
           17          14      0.5333      0.0867   1412.9153    703.0000     49.4478
           17          15      0.5333      0.0933   1413.6418    703.0000     49.4889
           17          16      0.5333      0.1000   1414.3683    703.0000     49.5300
           17          17      0.5333      0.1067   1415.0949    703.0000     49.5712
           17          18      0.5333      0.1133   1415.8216    703.0000     49.6125
           17          19      0.5333      0.1200   1416.5484    703.0000     49.6538
           17          20      0.5333      0.1267   1417.2752    703.0000     49.6952
           17          21      0.5333      0.1333   1418.0020    703.0000     49.7367
           17          22      0.5333      0.1400   1418.7288    703.0000     49.7782
           17          23      0.5333      0.1467   1419.4557    703.0000     49.8198
           17          24      0.5333      0.1533   1420.1826    703.0000     49.8615
           17          25      0.5333      0.1600   1420.9094    703.0000     49.9032
           17          26      0.5333      0.1667   1421.6361    703.0000     49.9450
           17          27      0.5333      0.1733   1422.3628    703.0000     49.9869
           17          28      0.5333      0.1800   1423.0894    703.0000     50.0288
           17          29      0.5333      0.1867   1423.8159    703.0000     50.0708
           17          30      0.5333      0.1933   1424.5421    703.0000     50.1128
           17          31      0.5333      0.2000   1425.2682    703.0000     50.1548
           18           1      0.5667      0.0000   1403.4472    703.0000     48.9188
           18           2      0.5667      0.0067   1404.1719    703.0000     48.9589
           18           3      0.5667      0.0133   1404.8966    703.0000     48.9990
           18           4      0.5667      0.0200   1405.6213    703.0000     49.0393
           18           5      0.5667      0.0267   1406.3461    703.0000     49.0796
           18           6      0.5667      0.0333   1407.0709    703.0000     49.1199
           18           7      0.5667      0.0400   1407.7959    703.0000     49.1604
           18           8      0.5667      0.0467   1408.5209    703.0000     49.2009
           18           9      0.5667      0.0533   1409.2462    703.0000     49.2415
           18          10      0.5667      0.0600   1409.9715    703.0000     49.2822
           18          11      0.5667      0.0667   1410.6971    703.0000     49.3229
           18          12      0.5667      0.0733   1411.4229    703.0000     49.3637
           18          13      0.5667      0.0800   1412.1488    703.0000     49.4046
           18          14      0.5667      0.0867   1412.8750    703.0000     49.4456
           18          15      0.5667      0.0933   1413.6014    703.0000     49.4866
           18          16      0.5667      0.1000   1414.3281    703.0000     49.5278
           18          17      0.5667      0.1067   1415.0549    703.0000     49.5690
           18          18      0.5667      0.1133   1415.7820    703.0000     49.6102
           18          19      0.5667      0.1200   1416.5093    703.0000     49.6516
           18          20      0.5667      0.1267   1417.2367    703.0000     49.6930
           18          21      0.5667      0.1333   1417.9644    703.0000     49.7346
           18          22      0.5667      0.1400   1418.6922    703.0000     49.7761
           18          23      0.5667      0.1467   1419.4202    703.0000     49.8178
           18          24      0.5667      0.1533   1420.1483    703.0000     49.8595
           18          25      0.5667      0.1600   1420.8765    703.0000     49.9013
           18          26      0.5667      0.1667   1421.6047    703.0000     49.9432
           18          27      0.5667      0.1733   1422.3330    703.0000     49.9852
           18          28      0.5667      0.1800   1423.0613    703.0000     50.0272
           18          29      0.5667      0.1867   1423.7896    703.0000     50.0692
           18          30      0.5667      0.1933   1424.5178    703.0000     50.1114
           18          31      0.5667      0.2000   1425.2459    703.0000     50.1536
           19           1      0.6000      0.0000   1403.4004    703.0000     48.9162
           19           2      0.6000      0.0067   1404.1220    703.0000     48.9561
           19           3      0.6000      0.0133   1404.8436    703.0000     48.9961
           19           4      0.6000      0.0200   1405.5656    703.0000     49.0362
           19           5      0.6000      0.0267   1406.2877    703.0000     49.0763
           19           6      0.6000      0.0333   1407.0102    703.0000     49.1166
           19           7      0.6000      0.0400   1407.7329    703.0000     49.1569
           19           8      0.6000      0.0467   1408.4561    703.0000     49.1973
           19           9      0.6000      0.0533   1409.1796    703.0000     49.2378
           19          10      0.6000      0.0600   1409.9036    703.0000     49.2783
           19          11      0.6000      0.0667   1410.6279    703.0000     49.3190
           19          12      0.6000      0.0733   1411.3528    703.0000     49.3598
           19          13      0.6000      0.0800   1412.0781    703.0000     49.4006
           19          14      0.6000      0.0867   1412.8039    703.0000     49.4416
           19          15      0.6000      0.0933   1413.5302    703.0000     49.4826
           19          16      0.6000      0.1000   1414.2569    703.0000     49.5237
           19          17      0.6000      0.1067   1414.9842    703.0000     49.5649
           19          18      0.6000      0.1133   1415.7119    703.0000     49.6063
           19          19      0.6000      0.1200   1416.4401    703.0000     49.6477
           19          20      0.6000      0.1267   1417.1688    703.0000     49.6892
           19          21      0.6000      0.1333   1417.8979    703.0000     49.7308
           19          22      0.6000      0.1400   1418.6274    703.0000     49.7724
           19          23      0.6000      0.1467   1419.3574    703.0000     49.8142
           19          24      0.6000      0.1533   1420.0876    703.0000     49.8561
           19          25      0.6000      0.1600   1420.8182    703.0000     49.8980
           19          26      0.6000      0.1667   1421.5491    703.0000     49.9400
           19          27      0.6000      0.1733   1422.2803    703.0000     49.9821
           19          28      0.6000      0.1800   1423.0116    703.0000     50.0243
           19          29      0.6000      0.1867   1423.7431    703.0000     50.0666
           19          30      0.6000      0.1933   1424.4748    703.0000     50.1089
           19          31      0.6000      0.2000   1425.2064    703.0000     50.1513
           20           1      0.6333      0.0000   1403.3293    703.0000     48.9123
           20           2      0.6333      0.0067   1404.0459    703.0000     48.9519
           20           3      0.6333      0.0133   1404.7631    703.0000     48.9916
           20           4      0.6333      0.0200   1405.4807    703.0000     49.0315
           20           5      0.6333      0.0267   1406.1988    703.0000     49.0714
           20           6      0.6333      0.0333   1406.9177    703.0000     49.1114
           20           7      0.6333      0.0400   1407.6371    703.0000     49.1515
           20           8      0.6333      0.0467   1408.3573    703.0000     49.1917
           20           9      0.6333      0.0533   1409.0783    703.0000     49.2321
           20          10      0.6333      0.0600   1409.8000    703.0000     49.2725
           20          11      0.6333      0.0667   1410.5225    703.0000     49.3131
           20          12      0.6333      0.0733   1411.2460    703.0000     49.3538
           20          13      0.6333      0.0800   1411.9702    703.0000     49.3945
           20          14      0.6333      0.0867   1412.6954    703.0000     49.4354
           20          15      0.6333      0.0933   1413.4214    703.0000     49.4764
           20          16      0.6333      0.1000   1414.1484    703.0000     49.5176
           20          17      0.6333      0.1067   1414.8762    703.0000     49.5588
           20          18      0.6333      0.1133   1415.6050    703.0000     49.6002
           20          19      0.6333      0.1200   1416.3346    703.0000     49.6417
           20          20      0.6333      0.1267   1417.0650    703.0000     49.6833
           20          21      0.6333      0.1333   1417.7964    703.0000     49.7250
           20          22      0.6333      0.1400   1418.5285    703.0000     49.7668
           20          23      0.6333      0.1467   1419.2613    703.0000     49.8087
           20          24      0.6333      0.1533   1419.9949    703.0000     49.8507
           20          25      0.6333      0.1600   1420.7292    703.0000     49.8929
           20          26      0.6333      0.1667   1421.4641    703.0000     49.9351
           20          27      0.6333      0.1733   1422.1996    703.0000     49.9775
           20          28      0.6333      0.1800   1422.9356    703.0000     50.0199
           20          29      0.6333      0.1867   1423.6721    703.0000     50.0624
           20          30      0.6333      0.1933   1424.4089    703.0000     50.1051
           20          31      0.6333      0.2000   1425.1460    703.0000     50.1478
           21           1      0.6667      0.0000   1403.2275    703.0000     48.9066
           21           2      0.6667      0.0067   1403.9372    703.0000     48.9459
           21           3      0.6667      0.0133   1404.6477    703.0000     48.9852
           21           4      0.6667      0.0200   1405.3592    703.0000     49.0247
           21           5      0.6667      0.0267   1406.0717    703.0000     49.0643
           21           6      0.6667      0.0333   1406.7852    703.0000     49.1040
           21           7      0.6667      0.0400   1407.4999    703.0000     49.1439
           21           8      0.6667      0.0467   1408.2158    703.0000     49.1838
           21           9      0.6667      0.0533   1408.9330    703.0000     49.2240
           21          10      0.6667      0.0600   1409.6516    703.0000     49.2642
           21          11      0.6667      0.0667   1410.3715    703.0000     49.3046
           21          12      0.6667      0.0733   1411.0927    703.0000     49.3451
           21          13      0.6667      0.0800   1411.8155    703.0000     49.3858
           21          14      0.6667      0.0867   1412.5397    703.0000     49.4266
           21          15      0.6667      0.0933   1413.2653    703.0000     49.4676
           21          16      0.6667      0.1000   1413.9925    703.0000     49.5088
           21          17      0.6667      0.1067   1414.7211    703.0000     49.5500
           21          18      0.6667      0.1133   1415.4512    703.0000     49.5915
           21          19      0.6667      0.1200   1416.1828    703.0000     49.6330
           21          20      0.6667      0.1267   1416.9158    703.0000     49.6748
           21          21      0.6667      0.1333   1417.6502    703.0000     49.7166
           21          22      0.6667      0.1400   1418.3860    703.0000     49.7586
           21          23      0.6667      0.1467   1419.1231    703.0000     49.8008
           21          24      0.6667      0.1533   1419.8614    703.0000     49.8431
           21          25      0.6667      0.1600   1420.6010    703.0000     49.8855
           21          26      0.6667      0.1667   1421.3416    703.0000     49.9281
           21          27      0.6667      0.1733   1422.0834    703.0000     49.9708
           21          28      0.6667      0.1800   1422.8261    703.0000     50.0136
           21          29      0.6667      0.1867   1423.5696    703.0000     50.0565
           21          30      0.6667      0.1933   1424.3140    703.0000     50.0996
           21          31      0.6667      0.2000   1425.0590    703.0000     50.1427
           22           1      0.7000      0.0000   1403.0863    703.0000     48.8988
           22           2      0.7000      0.0067   1403.7863    703.0000     48.9375
           22           3      0.7000      0.0133   1404.4877    703.0000     48.9764
           22           4      0.7000      0.0200   1405.1905    703.0000     49.0153
           22           5      0.7000      0.0267   1405.8950    703.0000     49.0545
           22           6      0.7000      0.0333   1406.6012    703.0000     49.0938
           22           7      0.7000      0.0400   1407.3093    703.0000     49.1332
           22           8      0.7000      0.0467   1408.0192    703.0000     49.1729
           22           9      0.7000      0.0533   1408.7311    703.0000     49.2127
           22          10      0.7000      0.0600   1409.4450    703.0000     49.2526
           22          11      0.7000      0.0667   1410.1611    703.0000     49.2928
           22          12      0.7000      0.0733   1410.8794    703.0000     49.3331
           22          13      0.7000      0.0800   1411.5998    703.0000     49.3737
           22          14      0.7000      0.0867   1412.3225    703.0000     49.4144
           22          15      0.7000      0.0933   1413.0475    703.0000     49.4553
           22          16      0.7000      0.1000   1413.7748    703.0000     49.4964
           22          17      0.7000      0.1067   1414.5044    703.0000     49.5377
           22          18      0.7000      0.1133   1415.2363    703.0000     49.5793
           22          19      0.7000      0.1200   1415.9705    703.0000     49.6210
           22          20      0.7000      0.1267   1416.7070    703.0000     49.6629
           22          21      0.7000      0.1333   1417.4456    703.0000     49.7050
           22          22      0.7000      0.1400   1418.1864    703.0000     49.7472
           22          23      0.7000      0.1467   1418.9293    703.0000     49.7897
           22          24      0.7000      0.1533   1419.6742    703.0000     49.8324
           22          25      0.7000      0.1600   1420.4211    703.0000     49.8752
           22          26      0.7000      0.1667   1421.1698    703.0000     49.9182
           22          27      0.7000      0.1733   1421.9202    703.0000     49.9614
           22          28      0.7000      0.1800   1422.6722    703.0000     50.0047
           22          29      0.7000      0.1867   1423.4257    703.0000     50.0482
           22          30      0.7000      0.1933   1424.1806    703.0000     50.0919
           22          31      0.7000      0.2000   1424.9367    703.0000     50.1356
           23           1      0.7333      0.0000   1402.8936    703.0000     48.8882
           23           2      0.7333      0.0067   1403.5804    703.0000     48.9261
           23           3      0.7333      0.0133   1404.2692    703.0000     48.9643
           23           4      0.7333      0.0200   1404.9604    703.0000     49.0026
           23           5      0.7333      0.0267   1405.6539    703.0000     49.0411
           23           6      0.7333      0.0333   1406.3500    703.0000     49.0798
           23           7      0.7333      0.0400   1407.0487    703.0000     49.1187
           23           8      0.7333      0.0467   1407.7503    703.0000     49.1578
           23           9      0.7333      0.0533   1408.4547    703.0000     49.1972
           23          10      0.7333      0.0600   1409.1623    703.0000     49.2368
           23          11      0.7333      0.0667   1409.8729    703.0000     49.2766
           23          12      0.7333      0.0733   1410.5867    703.0000     49.3167
           23          13      0.7333      0.0800   1411.3038    703.0000     49.3570
           23          14      0.7333      0.0867   1412.0243    703.0000     49.3976
           23          15      0.7333      0.0933   1412.7481    703.0000     49.4384
           23          16      0.7333      0.1000   1413.4753    703.0000     49.4795
           23          17      0.7333      0.1067   1414.2060    703.0000     49.5208
           23          18      0.7333      0.1133   1414.9401    703.0000     49.5624
           23          19      0.7333      0.1200   1415.6776    703.0000     49.6043
           23          20      0.7333      0.1267   1416.4186    703.0000     49.6464
           23          21      0.7333      0.1333   1417.1628    703.0000     49.6888
           23          22      0.7333      0.1400   1417.9103    703.0000     49.7315
           23          23      0.7333      0.1467   1418.6611    703.0000     49.7744
           23          24      0.7333      0.1533   1419.4149    703.0000     49.8175
           23          25      0.7333      0.1600   1420.1717    703.0000     49.8609
           23          26      0.7333      0.1667   1420.9314    703.0000     49.9045
           23          27      0.7333      0.1733   1421.6938    703.0000     49.9483
           23          28      0.7333      0.1800   1422.4587    703.0000     49.9924
           23          29      0.7333      0.1867   1423.2260    703.0000     50.0367
           23          30      0.7333      0.1933   1423.9954    703.0000     50.0811
           23          31      0.7333      0.2000   1424.7668    703.0000     50.1258
           24           1      0.7667      0.0000   1402.6337    703.0000     48.8738
           24           2      0.7667      0.0067   1403.3026    703.0000     48.9108
           24           3      0.7667      0.0133   1403.9745    703.0000     48.9479
           24           4      0.7667      0.0200   1404.6497    703.0000     48.9853
           24           5      0.7667      0.0267   1405.3282    703.0000     49.0230
           24           6      0.7667      0.0333   1406.0104    703.0000     49.0609
           24           7      0.7667      0.0400   1406.6963    703.0000     49.0991
           24           8      0.7667      0.0467   1407.3862    703.0000     49.1375
           24           9      0.7667      0.0533   1408.0803    703.0000     49.1763
           24          10      0.7667      0.0600   1408.7787    703.0000     49.2153
           24          11      0.7667      0.0667   1409.4815    703.0000     49.2547
           24          12      0.7667      0.0733   1410.1889    703.0000     49.2943
           24          13      0.7667      0.0800   1410.9010    703.0000     49.3344
           24          14      0.7667      0.0867   1411.6178    703.0000     49.3747
           24          15      0.7667      0.0933   1412.3395    703.0000     49.4154
           24          16      0.7667      0.1000   1413.0662    703.0000     49.4564
           24          17      0.7667      0.1067   1413.7978    703.0000     49.4977
           24          18      0.7667      0.1133   1414.5344    703.0000     49.5394
           24          19      0.7667      0.1200   1415.2760    703.0000     49.5815
           24          20      0.7667      0.1267   1416.0226    703.0000     49.6239
           24          21      0.7667      0.1333   1416.7740    703.0000     49.6667
           24          22      0.7667      0.1400   1417.5304    703.0000     49.7098
           24          23      0.7667      0.1467   1418.2915    703.0000     49.7532
           24          24      0.7667      0.1533   1419.0572    703.0000     49.7970
           24          25      0.7667      0.1600   1419.8274    703.0000     49.8411
           24          26      0.7667      0.1667   1420.6020    703.0000     49.8856
           24          27      0.7667      0.1733   1421.3806    703.0000     49.9303
           24          28      0.7667      0.1800   1422.1632    703.0000     49.9754
           24          29      0.7667      0.1867   1422.9494    703.0000     50.0207
           24          30      0.7667      0.1933   1423.7389    703.0000     50.0663
           24          31      0.7667      0.2000   1424.5315    703.0000     50.1122
           25           1      0.8000      0.0000   1402.2865    703.0000     48.8547
           25           2      0.8000      0.0067   1402.9315    703.0000     48.8903
           25           3      0.8000      0.0133   1403.5806    703.0000     48.9262
           25           4      0.8000      0.0200   1404.2341    703.0000     48.9623
           25           5      0.8000      0.0267   1404.8923    703.0000     48.9988
           25           6      0.8000      0.0333   1405.5554    703.0000     49.0356
           25           7      0.8000      0.0400   1406.2237    703.0000     49.0728
           25           8      0.8000      0.0467   1406.8974    703.0000     49.1103
           25           9      0.8000      0.0533   1407.5768    703.0000     49.1482
           25          10      0.8000      0.0600   1408.2622    703.0000     49.1864
           25          11      0.8000      0.0667   1408.9536    703.0000     49.2251
           25          12      0.8000      0.0733   1409.6514    703.0000     49.2642
           25          13      0.8000      0.0800   1410.3557    703.0000     49.3037
           25          14      0.8000      0.0867   1411.0667    703.0000     49.3437
           25          15      0.8000      0.0933   1411.7846    703.0000     49.3841
           25          16      0.8000      0.1000   1412.5093    703.0000     49.4249
           25          17      0.8000      0.1067   1413.2412    703.0000     49.4663
           25          18      0.8000      0.1133   1413.9801    703.0000     49.5081
           25          19      0.8000      0.1200   1414.7262    703.0000     49.5503
           25          20      0.8000      0.1267   1415.4795    703.0000     49.5931
           25          21      0.8000      0.1333   1416.2399    703.0000     49.6363
           25          22      0.8000      0.1400   1417.0075    703.0000     49.6800
           25          23      0.8000      0.1467   1417.7820    703.0000     49.7241
           25          24      0.8000      0.1533   1418.5633    703.0000     49.7688
           25          25      0.8000      0.1600   1419.3514    703.0000     49.8139
           25          26      0.8000      0.1667   1420.1459    703.0000     49.8594
           25          27      0.8000      0.1733   1420.9466    703.0000     49.9054
           25          28      0.8000      0.1800   1421.7532    703.0000     49.9518
           25          29      0.8000      0.1867   1422.5653    703.0000     49.9986
           25          30      0.8000      0.1933   1423.3827    703.0000     50.0457
           25          31      0.8000      0.2000   1424.2047    703.0000     50.0932
           26           1      0.8333      0.0000   1401.8272    703.0000     48.8294
           26           2      0.8333      0.0067   1402.4406    703.0000     48.8632
           26           3      0.8333      0.0133   1403.0592    703.0000     48.8973
           26           4      0.8333      0.0200   1403.6837    703.0000     48.9319
           26           5      0.8333      0.0267   1404.3142    703.0000     48.9668
           26           6      0.8333      0.0333   1404.9513    703.0000     49.0021
           26           7      0.8333      0.0400   1405.5951    703.0000     49.0378
           26           8      0.8333      0.0467   1406.2462    703.0000     49.0740
           26           9      0.8333      0.0533   1406.9048    703.0000     49.1107
           26          10      0.8333      0.0600   1407.5713    703.0000     49.1478
           26          11      0.8333      0.0667   1408.2460    703.0000     49.1855
           26          12      0.8333      0.0733   1408.9292    703.0000     49.2237
           26          13      0.8333      0.0800   1409.6213    703.0000     49.2625
           26          14      0.8333      0.0867   1410.3225    703.0000     49.3018
           26          15      0.8333      0.0933   1411.0330    703.0000     49.3418
           26          16      0.8333      0.1000   1411.7532    703.0000     49.3823
           26          17      0.8333      0.1067   1412.4832    703.0000     49.4235
           26          18      0.8333      0.1133   1413.2232    703.0000     49.4652
           26          19      0.8333      0.1200   1413.9734    703.0000     49.5077
           26          20      0.8333      0.1267   1414.7338    703.0000     49.5507
           26          21      0.8333      0.1333   1415.5045    703.0000     49.5945
           26          22      0.8333      0.1400   1416.2855    703.0000     49.6389
           26          23      0.8333      0.1467   1417.0768    703.0000     49.6839
           26          24      0.8333      0.1533   1417.8781    703.0000     49.7296
           26          25      0.8333      0.1600   1418.6894    703.0000     49.7760
           26          26      0.8333      0.1667   1419.5104    703.0000     49.8230
           26          27      0.8333      0.1733   1420.3408    703.0000     49.8706
           26          28      0.8333      0.1800   1421.1802    703.0000     49.9188
           26          29      0.8333      0.1867   1422.0280    703.0000     49.9676
           26          30      0.8333      0.1933   1422.8838    703.0000     50.0169
           26          31      0.8333      0.2000   1423.7470    703.0000     50.0668
           27           1      0.8667      0.0000   1401.2275    703.0000     48.7964
           27           2      0.8667      0.0067   1401.7993    703.0000     48.8278
           27           3      0.8667      0.0133   1402.3777    703.0000     48.8597
           27           4      0.8667      0.0200   1402.9634    703.0000     48.8920
           27           5      0.8667      0.0267   1403.5567    703.0000     48.9248
           27           6      0.8667      0.0333   1404.1582    703.0000     48.9581
           27           7      0.8667      0.0400   1404.7682    703.0000     48.9919
           27           8      0.8667      0.0467   1405.3874    703.0000     49.0263
           27           9      0.8667      0.0533   1406.0162    703.0000     49.0612
           27          10      0.8667      0.0600   1406.6552    703.0000     49.0968
           27          11      0.8667      0.0667   1407.3047    703.0000     49.1330
           27          12      0.8667      0.0733   1407.9653    703.0000     49.1698
           27          13      0.8667      0.0800   1408.6376    703.0000     49.2074
           27          14      0.8667      0.0867   1409.3219    703.0000     49.2457
           27          15      0.8667      0.0933   1410.0188    703.0000     49.2848
           27          16      0.8667      0.1000   1410.7287    703.0000     49.3247
           27          17      0.8667      0.1067   1411.4521    703.0000     49.3654
           27          18      0.8667      0.1133   1412.1893    703.0000     49.4069
           27          19      0.8667      0.1200   1412.9407    703.0000     49.4493
           27          20      0.8667      0.1267   1413.7066    703.0000     49.4926
           27          21      0.8667      0.1333   1414.4872    703.0000     49.5368
           27          22      0.8667      0.1400   1415.2828    703.0000     49.5819
           27          23      0.8667      0.1467   1416.0935    703.0000     49.6280
           27          24      0.8667      0.1533   1416.9192    703.0000     49.6749
           27          25      0.8667      0.1600   1417.7598    703.0000     49.7229
           27          26      0.8667      0.1667   1418.6152    703.0000     49.7717
           27          27      0.8667      0.1733   1419.4850    703.0000     49.8215
           27          28      0.8667      0.1800   1420.3688    703.0000     49.8722
           27          29      0.8667      0.1867   1421.2658    703.0000     49.9237
           27          30      0.8667      0.1933   1422.1755    703.0000     49.9761
           27          31      0.8667      0.2000   1423.0968    703.0000     50.0292
           28           1      0.9000      0.0000   1400.4577    703.0000     48.7541
           28           2      0.9000      0.0067   1400.9758    703.0000     48.7825
           28           3      0.9000      0.0133   1401.5018    703.0000     48.8115
           28           4      0.9000      0.0200   1402.0363    703.0000     48.8409
           28           5      0.9000      0.0267   1402.5798    703.0000     48.8709
           28           6      0.9000      0.0333   1403.1329    703.0000     48.9014
           28           7      0.9000      0.0400   1403.6963    703.0000     48.9326
           28           8      0.9000      0.0467   1404.2706    703.0000     48.9643
           28           9      0.9000      0.0533   1404.8566    703.0000     48.9968
           28          10      0.9000      0.0600   1405.4548    703.0000     49.0300
           28          11      0.9000      0.0667   1406.0662    703.0000     49.0640
           28          12      0.9000      0.0733   1406.6913    703.0000     49.0988
           28          13      0.9000      0.0800   1407.3310    703.0000     49.1344
           28          14      0.9000      0.0867   1407.9861    703.0000     49.1710
           28          15      0.9000      0.0933   1408.6575    703.0000     49.2085
           28          16      0.9000      0.1000   1409.3458    703.0000     49.2471
           28          17      0.9000      0.1067   1410.0520    703.0000     49.2867
           28          18      0.9000      0.1133   1410.7769    703.0000     49.3274
           28          19      0.9000      0.1200   1411.5213    703.0000     49.3692
           28          20      0.9000      0.1267   1412.2859    703.0000     49.4123
           28          21      0.9000      0.1333   1413.0714    703.0000     49.4567
           28          22      0.9000      0.1400   1413.8786    703.0000     49.5023
           28          23      0.9000      0.1467   1414.7079    703.0000     49.5493
           28          24      0.9000      0.1533   1415.5598    703.0000     49.5976
           28          25      0.9000      0.1600   1416.4346    703.0000     49.6474
           28          26      0.9000      0.1667   1417.3324    703.0000     49.6985
           28          27      0.9000      0.1733   1418.2530    703.0000     49.7510
           28          28      0.9000      0.1800   1419.1961    703.0000     49.8050
           28          29      0.9000      0.1867   1420.1609    703.0000     49.8603
           28          30      0.9000      0.1933   1421.1466    703.0000     49.9169
           28          31      0.9000      0.2000   1422.1517    703.0000     49.9747
           29           1      0.9333      0.0000   1399.4922    703.0000     48.7011
           29           2      0.9333      0.0067   1399.9427    703.0000     48.7258
           29           3      0.9333      0.0133   1400.4017    703.0000     48.7510
           29           4      0.9333      0.0200   1400.8698    703.0000     48.7767
           29           5      0.9333      0.0267   1401.3477    703.0000     48.8030
           29           6      0.9333      0.0333   1401.8361    703.0000     48.8299
           29           7      0.9333      0.0400   1402.3357    703.0000     48.8574
           29           8      0.9333      0.0467   1402.8474    703.0000     48.8856
           29           9      0.9333      0.0533   1403.3721    703.0000     48.9146
           29          10      0.9333      0.0600   1403.9107    703.0000     48.9444
           29          11      0.9333      0.0667   1404.4641    703.0000     48.9751
           29          12      0.9333      0.0733   1405.0335    703.0000     49.0066
           29          13      0.9333      0.0800   1405.6200    703.0000     49.0392
           29          14      0.9333      0.0867   1406.2247    703.0000     49.0728
           29          15      0.9333      0.0933   1406.8491    703.0000     49.1076
           29          16      0.9333      0.1000   1407.4944    703.0000     49.1436
           29          17      0.9333      0.1067   1408.1622    703.0000     49.1808
           29          18      0.9333      0.1133   1408.8539    703.0000     49.2195
           29          19      0.9333      0.1200   1409.5712    703.0000     49.2597
           29          20      0.9333      0.1267   1410.3157    703.0000     49.3015
           29          21      0.9333      0.1333   1411.0891    703.0000     49.3449
           29          22      0.9333      0.1400   1411.8931    703.0000     49.3902
           29          23      0.9333      0.1467   1412.7294    703.0000     49.4374
           29          24      0.9333      0.1533   1413.5997    703.0000     49.4865
           29          25      0.9333      0.1600   1414.5054    703.0000     49.5378
           29          26      0.9333      0.1667   1415.4479    703.0000     49.5913
           29          27      0.9333      0.1733   1416.4281    703.0000     49.6470
           29          28      0.9333      0.1800   1417.4465    703.0000     49.7050
           29          29      0.9333      0.1867   1418.5031    703.0000     49.7653
           29          30      0.9333      0.1933   1419.5970    703.0000     49.8279
           29          31      0.9333      0.2000   1420.7265    703.0000     49.8927
           30           1      0.9667      0.0000   1398.3190    703.0000     48.6369
           30           2      0.9667      0.0067   1398.6867    703.0000     48.6570
           30           3      0.9667      0.0133   1399.0625    703.0000     48.6776
           30           4      0.9667      0.0200   1399.4470    703.0000     48.6986
           30           5      0.9667      0.0267   1399.8408    703.0000     48.7202
           30           6      0.9667      0.0333   1400.2447    703.0000     48.7424
           30           7      0.9667      0.0400   1400.6595    703.0000     48.7651
           30           8      0.9667      0.0467   1401.0861    703.0000     48.7886
           30           9      0.9667      0.0533   1401.5254    703.0000     48.8128
           30          10      0.9667      0.0600   1401.9785    703.0000     48.8377
           30          11      0.9667      0.0667   1402.4465    703.0000     48.8635
           30          12      0.9667      0.0733   1402.9307    703.0000     48.8902
           30          13      0.9667      0.0800   1403.4326    703.0000     48.9180
           30          14      0.9667      0.0867   1403.9537    703.0000     48.9468
           30          15      0.9667      0.0933   1404.4957    703.0000     48.9768
           30          16      0.9667      0.1000   1405.0606    703.0000     49.0081
           30          17      0.9667      0.1067   1405.6506    703.0000     49.0409
           30          18      0.9667      0.1133   1406.2680    703.0000     49.0752
           30          19      0.9667      0.1200   1406.9154    703.0000     49.1113
           30          20      0.9667      0.1267   1407.5959    703.0000     49.1492
           30          21      0.9667      0.1333   1408.3128    703.0000     49.1893
           30          22      0.9667      0.1400   1409.0697    703.0000     49.2316
           30          23      0.9667      0.1467   1409.8707    703.0000     49.2765
           30          24      0.9667      0.1533   1410.7202    703.0000     49.3242
           30          25      0.9667      0.1600   1411.6230    703.0000     49.3750
           30          26      0.9667      0.1667   1412.5842    703.0000     49.4292
           30          27      0.9667      0.1733   1413.6091    703.0000     49.4871
           30          28      0.9667      0.1800   1414.7028    703.0000     49.5490
           30          29      0.9667      0.1867   1415.8700    703.0000     49.6152
           30          30      0.9667      0.1933   1417.1138    703.0000     49.6860
           30          31      0.9667      0.2000   1418.4352    703.0000     49.7615
           31           1      1.0000      0.0000   1396.9482    703.0000     48.5621
           31           2      1.0000      0.0067   1397.2186    703.0000     48.5769
           31           3      1.0000      0.0133   1397.4953    703.0000     48.5920
           31           4      1.0000      0.0200   1397.7788    703.0000     48.6074
           31           5      1.0000      0.0267   1398.0696    703.0000     48.6233
           31           6      1.0000      0.0333   1398.3683    703.0000     48.6396
           31           7      1.0000      0.0400   1398.6755    703.0000     48.6564
           31           8      1.0000      0.0467   1398.9920    703.0000     48.6737
           31           9      1.0000      0.0533   1399.3186    703.0000     48.6916
           31          10      1.0000      0.0600   1399.6562    703.0000     48.7101
           31          11      1.0000      0.0667   1400.0057    703.0000     48.7293
           31          12      1.0000      0.0733   1400.3683    703.0000     48.7492
           31          13      1.0000      0.0800   1400.7452    703.0000     48.7699
           31          14      1.0000      0.0867   1401.1379    703.0000     48.7914
           31          15      1.0000      0.0933   1401.5479    703.0000     48.8140
           31          16      1.0000      0.1000   1401.9773    703.0000     48.8376
           31          17      1.0000      0.1067   1402.4280    703.0000     48.8625
           31          18      1.0000      0.1133   1402.9027    703.0000     48.8887
           31          19      1.0000      0.1200   1403.4042    703.0000     48.9164
           31          20      1.0000      0.1267   1403.9361    703.0000     48.9458
           31          21      1.0000      0.1333   1404.5026    703.0000     48.9772
           31          22      1.0000      0.1400   1405.1087    703.0000     49.0108
           31          23      1.0000      0.1467   1405.7606    703.0000     49.0470
           31          24      1.0000      0.1533   1406.4662    703.0000     49.0863
           31          25      1.0000      0.1600   1407.2351    703.0000     49.1291
           31          26      1.0000      0.1667   1408.0799    703.0000     49.1762
           31          27      1.0000      0.1733   1409.0167    703.0000     49.2286
           31          28      1.0000      0.1800   1410.0665    703.0000     49.2875
           31          29      1.0000      0.1867   1411.2575    703.0000     49.3544
           31          30      1.0000      0.1933   1412.6271    703.0000     49.4316
           31          31      1.0000      0.2000   1414.2264    703.0000     49.5220
