 ====================================================================================
               Transient state solution for a 2D rectangular plate
                    for applications in steel reheating
                 e.g. Reheating furnaces for rolling processing
 ====================================================================================
 Author: Dickson Alves de Souza

 Based on lectures by professor Roberto Parreiras Tavares

 and book Numerical Heat Transfer and Fluid Flow
 by Suhas V. Patankar (1980)

 Federal University of Minas Gerais (UFMG)
 October 26th, 2017
 ====================================================================================
                              Input parameters:

 Lenght in X direction (meters):           1.0000
 Lenght in Y direction (meters):           0.2000
 Nodes in X direction:                         31
 Nodes in Y direction:                         31
 ====================================================================================

                       STAGE                1/  5
                       START Time:         0.0000
                       END Time:        1140.0000
                       Iterations:             1852

 ====================================================================================
 Temperature of fluid at left face (T left):             1223.1500
 Temperature of fluid at right face (T right):           1223.1500
 Temperature of fluid at bottom face (T bottom):         1223.1500
 Temperature of fluid at top face (T top):               1223.1500
 ------------------------------------------------------------------------------------
 Heat transfer coefficient at left face (H left):          50.0000
 Heat transfer coefficient at right face (H right):        50.0000
 Heat transfer coefficient at bottom face (H bottom):       8.0000
 Heat transfer coefficient at top face (H top):           150.0000
 ====================================================================================


 ====================================================================================

                       STAGE                2/  5
                       START Time:      1140.0000
                       END Time:        3060.0000
                       Iterations:             1852

 ====================================================================================
 Temperature of fluid at left face (T left):             1423.1500
 Temperature of fluid at right face (T right):           1423.1500
 Temperature of fluid at bottom face (T bottom):         1423.1500
 Temperature of fluid at top face (T top):               1423.1500
 ------------------------------------------------------------------------------------
 Heat transfer coefficient at left face (H left):          50.0000
 Heat transfer coefficient at right face (H right):        50.0000
 Heat transfer coefficient at bottom face (H bottom):       8.0000
 Heat transfer coefficient at top face (H top):           150.0000
 ====================================================================================


 ====================================================================================

                       STAGE                3/  5
                       START Time:      3060.0000
                       END Time:        4980.0000
                       Iterations:             1852

 ====================================================================================
 Temperature of fluid at left face (T left):             1513.1500
 Temperature of fluid at right face (T right):           1513.1500
 Temperature of fluid at bottom face (T bottom):         1513.1500
 Temperature of fluid at top face (T top):               1513.1500
 ------------------------------------------------------------------------------------
 Heat transfer coefficient at left face (H left):          50.0000
 Heat transfer coefficient at right face (H right):        50.0000
 Heat transfer coefficient at bottom face (H bottom):       8.0000
 Heat transfer coefficient at top face (H top):           150.0000
 ====================================================================================


 ====================================================================================

                       STAGE                4/  5
                       START Time:      4980.0000
                       END Time:        8400.0000
                       Iterations:             1852

 ====================================================================================
 Temperature of fluid at left face (T left):             1503.1500
 Temperature of fluid at right face (T right):           1503.1500
 Temperature of fluid at bottom face (T bottom):         1503.1500
 Temperature of fluid at top face (T top):               1523.1500
 ------------------------------------------------------------------------------------
 Heat transfer coefficient at left face (H left):          50.0000
 Heat transfer coefficient at right face (H right):        50.0000
 Heat transfer coefficient at bottom face (H bottom):       8.0000
 Heat transfer coefficient at top face (H top):           150.0000
 ====================================================================================


 ====================================================================================

                       STAGE                5/  5
                       START Time:      8400.0000
                       END Time:       18400.0000
                       Iterations:             1852

 ====================================================================================
 Temperature of fluid at left face (T left):             1393.1500
 Temperature of fluid at right face (T right):           1393.1500
 Temperature of fluid at bottom face (T bottom):         1393.1500
 Temperature of fluid at top face (T top):               1433.1500
 ------------------------------------------------------------------------------------
 Heat transfer coefficient at left face (H left):          50.0000
 Heat transfer coefficient at right face (H right):        50.0000
 Heat transfer coefficient at bottom face (H bottom):       8.0000
 Heat transfer coefficient at top face (H top):           150.0000
 ====================================================================================


 SOLUTION of LINEAR SYSTEM: TDMA (tri-diagonal matrix algorithm)
      ADI approach employed in solution.
 Tolerance:       0.0010

 ====================================================================================
                    Calculation Results
 Current time:    11800.000000000000       seconds
 Maximum Temperature :    1430.2181568851383
 Minimum Temperature :    1398.7205450486390
 Average(algebraic, non-weigthed) Temperature :    1417.8316386939166
 ====================================================================================
            I           J        X(m)        Y(m)        T(K)  Cp(J/kg.K) K(W/sq-m.K)
 ====================================================================================
            1           1      0.0000      0.0000   1398.7205    703.0000     48.6589
            1           2      0.0000      0.0067   1399.1123    703.0000     48.6803
            1           3      0.0000      0.0133   1399.5030    703.0000     48.7017
            1           4      0.0000      0.0200   1399.8929    703.0000     48.7231
            1           5      0.0000      0.0267   1400.2819    703.0000     48.7444
            1           6      0.0000      0.0333   1400.6704    703.0000     48.7657
            1           7      0.0000      0.0400   1401.0586    703.0000     48.7871
            1           8      0.0000      0.0467   1401.4470    703.0000     48.8084
            1           9      0.0000      0.0533   1401.8361    703.0000     48.8299
            1          10      0.0000      0.0600   1402.2266    703.0000     48.8514
            1          11      0.0000      0.0667   1402.6192    703.0000     48.8730
            1          12      0.0000      0.0733   1403.0150    703.0000     48.8949
            1          13      0.0000      0.0800   1403.4151    703.0000     48.9170
            1          14      0.0000      0.0867   1403.8209    703.0000     48.9394
            1          15      0.0000      0.0933   1404.2339    703.0000     48.9623
            1          16      0.0000      0.1000   1404.6561    703.0000     48.9857
            1          17      0.0000      0.1067   1405.0895    703.0000     49.0097
            1          18      0.0000      0.1133   1405.5368    703.0000     49.0346
            1          19      0.0000      0.1200   1406.0011    703.0000     49.0604
            1          20      0.0000      0.1267   1406.4860    703.0000     49.0874
            1          21      0.0000      0.1333   1406.9959    703.0000     49.1158
            1          22      0.0000      0.1400   1407.5361    703.0000     49.1459
            1          23      0.0000      0.1467   1408.1130    703.0000     49.1781
            1          24      0.0000      0.1533   1408.7349    703.0000     49.2129
            1          25      0.0000      0.1600   1409.4116    703.0000     49.2508
            1          26      0.0000      0.1667   1410.1562    703.0000     49.2925
            1          27      0.0000      0.1733   1410.9850    703.0000     49.3391
            1          28      0.0000      0.1800   1411.9197    703.0000     49.3917
            1          29      0.0000      0.1867   1412.9887    703.0000     49.4520
            1          30      0.0000      0.1933   1414.2301    703.0000     49.5222
            1          31      0.0000      0.2000   1415.6955    703.0000     49.6053
            2           1      0.0333      0.0000   1400.7459    703.0000     48.7699
            2           2      0.0333      0.0067   1401.2797    703.0000     48.7992
            2           3      0.0333      0.0133   1401.8116    703.0000     48.8285
            2           4      0.0333      0.0200   1402.3415    703.0000     48.8577
            2           5      0.0333      0.0267   1402.8697    703.0000     48.8869
            2           6      0.0333      0.0333   1403.3964    703.0000     48.9160
            2           7      0.0333      0.0400   1403.9218    703.0000     48.9450
            2           8      0.0333      0.0467   1404.4466    703.0000     48.9741
            2           9      0.0333      0.0533   1404.9712    703.0000     49.0032
            2          10      0.0333      0.0600   1405.4965    703.0000     49.0323
            2          11      0.0333      0.0667   1406.0233    703.0000     49.0616
            2          12      0.0333      0.0733   1406.5528    703.0000     49.0911
            2          13      0.0333      0.0800   1407.0861    703.0000     49.1208
            2          14      0.0333      0.0867   1407.6248    703.0000     49.1508
            2          15      0.0333      0.0933   1408.1706    703.0000     49.1813
            2          16      0.0333      0.1000   1408.7254    703.0000     49.2123
            2          17      0.0333      0.1067   1409.2914    703.0000     49.2440
            2          18      0.0333      0.1133   1409.8711    703.0000     49.2765
            2          19      0.0333      0.1200   1410.4674    703.0000     49.3100
            2          20      0.0333      0.1267   1411.0833    703.0000     49.3446
            2          21      0.0333      0.1333   1411.7226    703.0000     49.3806
            2          22      0.0333      0.1400   1412.3892    703.0000     49.4182
            2          23      0.0333      0.1467   1413.0875    703.0000     49.4576
            2          24      0.0333      0.1533   1413.8223    703.0000     49.4991
            2          25      0.0333      0.1600   1414.5990    703.0000     49.5431
            2          26      0.0333      0.1667   1415.4231    703.0000     49.5899
            2          27      0.0333      0.1733   1416.3004    703.0000     49.6397
            2          28      0.0333      0.1800   1417.2368    703.0000     49.6930
            2          29      0.0333      0.1867   1418.2374    703.0000     49.7502
            2          30      0.0333      0.1933   1419.3063    703.0000     49.8113
            2          31      0.0333      0.2000   1420.4449    703.0000     49.8766
            3           1      0.0667      0.0000   1402.5229    703.0000     48.8677
            3           2      0.0667      0.0067   1403.1807    703.0000     48.9040
            3           3      0.0667      0.0133   1403.8344    703.0000     48.9402
            3           4      0.0667      0.0200   1404.4840    703.0000     48.9762
            3           5      0.0667      0.0267   1405.1294    703.0000     49.0120
            3           6      0.0667      0.0333   1405.7708    703.0000     49.0476
            3           7      0.0667      0.0400   1406.4083    703.0000     49.0830
            3           8      0.0667      0.0467   1407.0423    703.0000     49.1183
            3           9      0.0667      0.0533   1407.6732    703.0000     49.1535
            3          10      0.0667      0.0600   1408.3016    703.0000     49.1886
            3          11      0.0667      0.0667   1408.9281    703.0000     49.2237
            3          12      0.0667      0.0733   1409.5536    703.0000     49.2587
            3          13      0.0667      0.0800   1410.1790    703.0000     49.2938
            3          14      0.0667      0.0867   1410.8055    703.0000     49.3290
            3          15      0.0667      0.0933   1411.4342    703.0000     49.3643
            3          16      0.0667      0.1000   1412.0666    703.0000     49.4000
            3          17      0.0667      0.1067   1412.7043    703.0000     49.4359
            3          18      0.0667      0.1133   1413.3488    703.0000     49.4723
            3          19      0.0667      0.1200   1414.0020    703.0000     49.5093
            3          20      0.0667      0.1267   1414.6658    703.0000     49.5469
            3          21      0.0667      0.1333   1415.3423    703.0000     49.5853
            3          22      0.0667      0.1400   1416.0336    703.0000     49.6245
            3          23      0.0667      0.1467   1416.7418    703.0000     49.6648
            3          24      0.0667      0.1533   1417.4691    703.0000     49.7063
            3          25      0.0667      0.1600   1418.2176    703.0000     49.7490
            3          26      0.0667      0.1667   1418.9892    703.0000     49.7931
            3          27      0.0667      0.1733   1419.7855    703.0000     49.8387
            3          28      0.0667      0.1800   1420.6079    703.0000     49.8859
            3          29      0.0667      0.1867   1421.4571    703.0000     49.9347
            3          30      0.0667      0.1933   1422.3330    703.0000     49.9852
            3          31      0.0667      0.2000   1423.2348    703.0000     50.0372
            4           1      0.1000      0.0000   1404.0324    703.0000     48.9512
            4           2      0.1000      0.0067   1404.7951    703.0000     48.9934
            4           3      0.1000      0.0133   1405.5507    703.0000     49.0353
            4           4      0.1000      0.0200   1406.2990    703.0000     49.0770
            4           5      0.1000      0.0267   1407.0399    703.0000     49.1182
            4           6      0.1000      0.0333   1407.7732    703.0000     49.1591
            4           7      0.1000      0.0400   1408.4990    703.0000     49.1997
            4           8      0.1000      0.0467   1409.2172    703.0000     49.2399
            4           9      0.1000      0.0533   1409.9281    703.0000     49.2797
            4          10      0.1000      0.0600   1410.6320    703.0000     49.3192
            4          11      0.1000      0.0667   1411.3292    703.0000     49.3584
            4          12      0.1000      0.0733   1412.0202    703.0000     49.3974
            4          13      0.1000      0.0800   1412.7056    703.0000     49.4360
            4          14      0.1000      0.0867   1413.3860    703.0000     49.4744
            4          15      0.1000      0.0933   1414.0623    703.0000     49.5127
            4          16      0.1000      0.1000   1414.7352    703.0000     49.5508
            4          17      0.1000      0.1067   1415.4058    703.0000     49.5889
            4          18      0.1000      0.1133   1416.0749    703.0000     49.6269
            4          19      0.1000      0.1200   1416.7436    703.0000     49.6649
            4          20      0.1000      0.1267   1417.4132    703.0000     49.7031
            4          21      0.1000      0.1333   1418.0845    703.0000     49.7414
            4          22      0.1000      0.1400   1418.7589    703.0000     49.7800
            4          23      0.1000      0.1467   1419.4373    703.0000     49.8188
            4          24      0.1000      0.1533   1420.1209    703.0000     49.8580
            4          25      0.1000      0.1600   1420.8106    703.0000     49.8976
            4          26      0.1000      0.1667   1421.5072    703.0000     49.9376
            4          27      0.1000      0.1733   1422.2114    703.0000     49.9782
            4          28      0.1000      0.1800   1422.9237    703.0000     50.0192
            4          29      0.1000      0.1867   1423.6443    703.0000     50.0608
            4          30      0.1000      0.1933   1424.3732    703.0000     50.1030
            4          31      0.1000      0.2000   1425.1100    703.0000     50.1457
            5           1      0.1333      0.0000   1405.2825    703.0000     49.0205
            5           2      0.1333      0.0067   1406.1315    703.0000     49.0676
            5           3      0.1333      0.0133   1406.9703    703.0000     49.1143
            5           4      0.1333      0.0200   1407.7984    703.0000     49.1605
            5           5      0.1333      0.0267   1408.6154    703.0000     49.2062
            5           6      0.1333      0.0333   1409.4210    703.0000     49.2513
            5           7      0.1333      0.0400   1410.2150    703.0000     49.2958
            5           8      0.1333      0.0467   1410.9972    703.0000     49.3398
            5           9      0.1333      0.0533   1411.7675    703.0000     49.3831
            5          10      0.1333      0.0600   1412.5259    703.0000     49.4259
            5          11      0.1333      0.0667   1413.2726    703.0000     49.4680
            5          12      0.1333      0.0733   1414.0078    703.0000     49.5096
            5          13      0.1333      0.0800   1414.7317    703.0000     49.5506
            5          14      0.1333      0.0867   1415.4446    703.0000     49.5911
            5          15      0.1333      0.0933   1416.1469    703.0000     49.6310
            5          16      0.1333      0.1000   1416.8393    703.0000     49.6704
            5          17      0.1333      0.1067   1417.5221    703.0000     49.7093
            5          18      0.1333      0.1133   1418.1961    703.0000     49.7478
            5          19      0.1333      0.1200   1418.8618    703.0000     49.7858
            5          20      0.1333      0.1267   1419.5200    703.0000     49.8235
            5          21      0.1333      0.1333   1420.1713    703.0000     49.8609
            5          22      0.1333      0.1400   1420.8165    703.0000     49.8979
            5          23      0.1333      0.1467   1421.4562    703.0000     49.9347
            5          24      0.1333      0.1533   1422.0912    703.0000     49.9712
            5          25      0.1333      0.1600   1422.7222    703.0000     50.0076
            5          26      0.1333      0.1667   1423.3498    703.0000     50.0438
            5          27      0.1333      0.1733   1423.9744    703.0000     50.0799
            5          28      0.1333      0.1800   1424.5967    703.0000     50.1159
            5          29      0.1333      0.1867   1425.2170    703.0000     50.1519
            5          30      0.1333      0.1933   1425.8357    703.0000     50.1878
            5          31      0.1333      0.2000   1426.4529    703.0000     50.2236
            6           1      0.1667      0.0000   1406.2972    703.0000     49.0769
            6           2      0.1667      0.0067   1407.2161    703.0000     49.1280
            6           3      0.1667      0.0133   1408.1217    703.0000     49.1786
            6           4      0.1667      0.0200   1409.0132    703.0000     49.2284
            6           5      0.1667      0.0267   1409.8902    703.0000     49.2776
            6           6      0.1667      0.0333   1410.7521    703.0000     49.3260
            6           7      0.1667      0.0400   1411.5985    703.0000     49.3736
            6           8      0.1667      0.0467   1412.4291    703.0000     49.4204
            6           9      0.1667      0.0533   1413.2435    703.0000     49.4664
            6          10      0.1667      0.0600   1414.0415    703.0000     49.5115
            6          11      0.1667      0.0667   1414.8232    703.0000     49.5558
            6          12      0.1667      0.0733   1415.5884    703.0000     49.5992
            6          13      0.1667      0.0800   1416.3373    703.0000     49.6418
            6          14      0.1667      0.0867   1417.0699    703.0000     49.6835
            6          15      0.1667      0.0933   1417.7864    703.0000     49.7244
            6          16      0.1667      0.1000   1418.4872    703.0000     49.7644
            6          17      0.1667      0.1067   1419.1726    703.0000     49.8036
            6          18      0.1667      0.1133   1419.8430    703.0000     49.8420
            6          19      0.1667      0.1200   1420.4988    703.0000     49.8797
            6          20      0.1667      0.1267   1421.1406    703.0000     49.9165
            6          21      0.1667      0.1333   1421.7688    703.0000     49.9527
            6          22      0.1667      0.1400   1422.3842    703.0000     49.9881
            6          23      0.1667      0.1467   1422.9873    703.0000     50.0229
            6          24      0.1667      0.1533   1423.5788    703.0000     50.0571
            6          25      0.1667      0.1600   1424.1592    703.0000     50.0906
            6          26      0.1667      0.1667   1424.7293    703.0000     50.1236
            6          27      0.1667      0.1733   1425.2898    703.0000     50.1561
            6          28      0.1667      0.1800   1425.8412    703.0000     50.1881
            6          29      0.1667      0.1867   1426.3842    703.0000     50.2196
            6          30      0.1667      0.1933   1426.9194    703.0000     50.2508
            6          31      0.1667      0.2000   1427.4475    703.0000     50.2815
            7           1      0.2000      0.0000   1407.1077    703.0000     49.1220
            7           2      0.2000      0.0067   1408.0823    703.0000     49.1764
            7           3      0.2000      0.0133   1409.0407    703.0000     49.2300
            7           4      0.2000      0.0200   1409.9823    703.0000     49.2828
            7           5      0.2000      0.0267   1410.9061    703.0000     49.3346
            7           6      0.2000      0.0333   1411.8116    703.0000     49.3856
            7           7      0.2000      0.0400   1412.6982    703.0000     49.4356
            7           8      0.2000      0.0467   1413.5654    703.0000     49.4846
            7           9      0.2000      0.0533   1414.4127    703.0000     49.5325
            7          10      0.2000      0.0600   1415.2398    703.0000     49.5795
            7          11      0.2000      0.0667   1416.0466    703.0000     49.6253
            7          12      0.2000      0.0733   1416.8327    703.0000     49.6700
            7          13      0.2000      0.0800   1417.5982    703.0000     49.7137
            7          14      0.2000      0.0867   1418.3430    703.0000     49.7562
            7          15      0.2000      0.0933   1419.0673    703.0000     49.7976
            7          16      0.2000      0.1000   1419.7712    703.0000     49.8379
            7          17      0.2000      0.1067   1420.4550    703.0000     49.8771
            7          18      0.2000      0.1133   1421.1189    703.0000     49.9153
            7          19      0.2000      0.1200   1421.7634    703.0000     49.9524
            7          20      0.2000      0.1267   1422.3889    703.0000     49.9884
            7          21      0.2000      0.1333   1422.9959    703.0000     50.0234
            7          22      0.2000      0.1400   1423.5849    703.0000     50.0574
            7          23      0.2000      0.1467   1424.1567    703.0000     50.0905
            7          24      0.2000      0.1533   1424.7119    703.0000     50.1226
            7          25      0.2000      0.1600   1425.2512    703.0000     50.1539
            7          26      0.2000      0.1667   1425.7753    703.0000     50.1843
            7          27      0.2000      0.1733   1426.2850    703.0000     50.2139
            7          28      0.2000      0.1800   1426.7812    703.0000     50.2427
            7          29      0.2000      0.1867   1427.2647    703.0000     50.2709
            7          30      0.2000      0.1933   1427.7364    703.0000     50.2984
            7          31      0.2000      0.2000   1428.1971    703.0000     50.3252
            8           1      0.2333      0.0000   1407.7462    703.0000     49.1576
            8           2      0.2333      0.0067   1408.7645    703.0000     49.2145
            8           3      0.2333      0.0133   1409.7644    703.0000     49.2705
            8           4      0.2333      0.0200   1410.7448    703.0000     49.3256
            8           5      0.2333      0.0267   1411.7050    703.0000     49.3796
            8           6      0.2333      0.0333   1412.6441    703.0000     49.4325
            8           7      0.2333      0.0400   1413.5615    703.0000     49.4844
            8           8      0.2333      0.0467   1414.4564    703.0000     49.5350
            8           9      0.2333      0.0533   1415.3284    703.0000     49.5845
            8          10      0.2333      0.0600   1416.1771    703.0000     49.6327
            8          11      0.2333      0.0667   1417.0020    703.0000     49.6797
            8          12      0.2333      0.0733   1417.8031    703.0000     49.7253
            8          13      0.2333      0.0800   1418.5800    703.0000     49.7697
            8          14      0.2333      0.0867   1419.3327    703.0000     49.8128
            8          15      0.2333      0.0933   1420.0613    703.0000     49.8546
            8          16      0.2333      0.1000   1420.7659    703.0000     49.8950
            8          17      0.2333      0.1067   1421.4466    703.0000     49.9341
            8          18      0.2333      0.1133   1422.1037    703.0000     49.9719
            8          19      0.2333      0.1200   1422.7376    703.0000     50.0085
            8          20      0.2333      0.1267   1423.3488    703.0000     50.0438
            8          21      0.2333      0.1333   1423.9378    703.0000     50.0778
            8          22      0.2333      0.1400   1424.5051    703.0000     50.1106
            8          23      0.2333      0.1467   1425.0514    703.0000     50.1423
            8          24      0.2333      0.1533   1425.5774    703.0000     50.1728
            8          25      0.2333      0.1600   1426.0840    703.0000     50.2022
            8          26      0.2333      0.1667   1426.5720    703.0000     50.2306
            8          27      0.2333      0.1733   1427.0423    703.0000     50.2579
            8          28      0.2333      0.1800   1427.4958    703.0000     50.2843
            8          29      0.2333      0.1867   1427.9336    703.0000     50.3098
            8          30      0.2333      0.1933   1428.3567    703.0000     50.3345
            8          31      0.2333      0.2000   1428.7662    703.0000     50.3584
            9           1      0.2667      0.0000   1408.2424    703.0000     49.1853
            9           2      0.2667      0.0067   1409.2947    703.0000     49.2442
            9           3      0.2667      0.0133   1410.3266    703.0000     49.3021
            9           4      0.2667      0.0200   1411.3371    703.0000     49.3589
            9           5      0.2667      0.0267   1412.3252    703.0000     49.4146
            9           6      0.2667      0.0333   1413.2901    703.0000     49.4690
            9           7      0.2667      0.0400   1414.2308    703.0000     49.5222
            9           8      0.2667      0.0467   1415.1468    703.0000     49.5742
            9           9      0.2667      0.0533   1416.0374    703.0000     49.6248
            9          10      0.2667      0.0600   1416.9021    703.0000     49.6740
            9          11      0.2667      0.0667   1417.7405    703.0000     49.7218
            9          12      0.2667      0.0733   1418.5522    703.0000     49.7681
            9          13      0.2667      0.0800   1419.3372    703.0000     49.8131
            9          14      0.2667      0.0867   1420.0952    703.0000     49.8565
            9          15      0.2667      0.0933   1420.8263    703.0000     49.8985
            9          16      0.2667      0.1000   1421.5304    703.0000     49.9389
            9          17      0.2667      0.1067   1422.2079    703.0000     49.9780
            9          18      0.2667      0.1133   1422.8590    703.0000     50.0155
            9          19      0.2667      0.1200   1423.4840    703.0000     50.0516
            9          20      0.2667      0.1267   1424.0834    703.0000     50.0862
            9          21      0.2667      0.1333   1424.6577    703.0000     50.1195
            9          22      0.2667      0.1400   1425.2076    703.0000     50.1513
            9          23      0.2667      0.1467   1425.7337    703.0000     50.1819
            9          24      0.2667      0.1533   1426.2369    703.0000     50.2111
            9          25      0.2667      0.1600   1426.7181    703.0000     50.2391
            9          26      0.2667      0.1667   1427.1781    703.0000     50.2658
            9          27      0.2667      0.1733   1427.6179    703.0000     50.2914
            9          28      0.2667      0.1800   1428.0387    703.0000     50.3160
            9          29      0.2667      0.1867   1428.4416    703.0000     50.3395
            9          30      0.2667      0.1933   1428.8277    703.0000     50.3620
            9          31      0.2667      0.2000   1429.1983    703.0000     50.3837
           10           1      0.3000      0.0000   1408.6226    703.0000     49.2066
           10           2      0.3000      0.0067   1409.7009    703.0000     49.2670
           10           3      0.3000      0.0133   1410.7573    703.0000     49.3263
           10           4      0.3000      0.0200   1411.7908    703.0000     49.3844
           10           5      0.3000      0.0267   1412.8001    703.0000     49.4413
           10           6      0.3000      0.0333   1413.7845    703.0000     49.4970
           10           7      0.3000      0.0400   1414.7429    703.0000     49.5513
           10           8      0.3000      0.0467   1415.6748    703.0000     49.6042
           10           9      0.3000      0.0533   1416.5793    703.0000     49.6556
           10          10      0.3000      0.0600   1417.4559    703.0000     49.7055
           10          11      0.3000      0.0667   1418.3042    703.0000     49.7540
           10          12      0.3000      0.0733   1419.1238    703.0000     49.8008
           10          13      0.3000      0.0800   1419.9145    703.0000     49.8461
           10          14      0.3000      0.0867   1420.6761    703.0000     49.8898
           10          15      0.3000      0.0933   1421.4086    703.0000     49.9319
           10          16      0.3000      0.1000   1422.1121    703.0000     49.9724
           10          17      0.3000      0.1067   1422.7867    703.0000     50.0113
           10          18      0.3000      0.1133   1423.4327    703.0000     50.0486
           10          19      0.3000      0.1200   1424.0505    703.0000     50.0843
           10          20      0.3000      0.1267   1424.6406    703.0000     50.1185
           10          21      0.3000      0.1333   1425.2034    703.0000     50.1511
           10          22      0.3000      0.1400   1425.7398    703.0000     50.1822
           10          23      0.3000      0.1467   1426.2503    703.0000     50.2119
           10          24      0.3000      0.1533   1426.7359    703.0000     50.2401
           10          25      0.3000      0.1600   1427.1976    703.0000     50.2670
           10          26      0.3000      0.1667   1427.6362    703.0000     50.2925
           10          27      0.3000      0.1733   1428.0528    703.0000     50.3168
           10          28      0.3000      0.1800   1428.4487    703.0000     50.3399
           10          29      0.3000      0.1867   1428.8251    703.0000     50.3619
           10          30      0.3000      0.1933   1429.1832    703.0000     50.3828
           10          31      0.3000      0.2000   1429.5244    703.0000     50.4028
           11           1      0.3333      0.0000   1408.9090    703.0000     49.2226
           11           2      0.3333      0.0067   1410.0069    703.0000     49.2841
           11           3      0.3333      0.0133   1411.0818    703.0000     49.3445
           11           4      0.3333      0.0200   1412.1324    703.0000     49.4037
           11           5      0.3333      0.0267   1413.1577    703.0000     49.4615
           11           6      0.3333      0.0333   1414.1567    703.0000     49.5180
           11           7      0.3333      0.0400   1415.1283    703.0000     49.5731
           11           8      0.3333      0.0467   1416.0719    703.0000     49.6267
           11           9      0.3333      0.0533   1416.9868    703.0000     49.6788
           11          10      0.3333      0.0600   1417.8722    703.0000     49.7293
           11          11      0.3333      0.0667   1418.7278    703.0000     49.7782
           11          12      0.3333      0.0733   1419.5531    703.0000     49.8254
           11          13      0.3333      0.0800   1420.3479    703.0000     49.8710
           11          14      0.3333      0.0867   1421.1121    703.0000     49.9149
           11          15      0.3333      0.0933   1421.8455    703.0000     49.9571
           11          16      0.3333      0.1000   1422.5482    703.0000     49.9976
           11          17      0.3333      0.1067   1423.2205    703.0000     50.0364
           11          18      0.3333      0.1133   1423.8625    703.0000     50.0735
           11          19      0.3333      0.1200   1424.4747    703.0000     50.1089
           11          20      0.3333      0.1267   1425.0576    703.0000     50.1426
           11          21      0.3333      0.1333   1425.6117    703.0000     50.1748
           11          22      0.3333      0.1400   1426.1377    703.0000     50.2053
           11          23      0.3333      0.1467   1426.6365    703.0000     50.2343
           11          24      0.3333      0.1533   1427.1088    703.0000     50.2618
           11          25      0.3333      0.1600   1427.5557    703.0000     50.2878
           11          26      0.3333      0.1667   1427.9783    703.0000     50.3125
           11          27      0.3333      0.1733   1428.3775    703.0000     50.3358
           11          28      0.3333      0.1800   1428.7548    703.0000     50.3578
           11          29      0.3333      0.1867   1429.1114    703.0000     50.3786
           11          30      0.3333      0.1933   1429.4486    703.0000     50.3983
           11          31      0.3333      0.2000   1429.7678    703.0000     50.4170
           12           1      0.3667      0.0000   1409.1198    703.0000     49.2344
           12           2      0.3667      0.0067   1410.2321    703.0000     49.2968
           12           3      0.3667      0.0133   1411.3205    703.0000     49.3579
           12           4      0.3667      0.0200   1412.3838    703.0000     49.4179
           12           5      0.3667      0.0267   1413.4208    703.0000     49.4764
           12           6      0.3667      0.0333   1414.4305    703.0000     49.5336
           12           7      0.3667      0.0400   1415.4118    703.0000     49.5892
           12           8      0.3667      0.0467   1416.3640    703.0000     49.6433
           12           9      0.3667      0.0533   1417.2864    703.0000     49.6959
           12          10      0.3667      0.0600   1418.1782    703.0000     49.7468
           12          11      0.3667      0.0667   1419.0391    703.0000     49.7960
           12          12      0.3667      0.0733   1419.8685    703.0000     49.8435
           12          13      0.3667      0.0800   1420.6663    703.0000     49.8893
           12          14      0.3667      0.0867   1421.4322    703.0000     49.9333
           12          15      0.3667      0.0933   1422.1662    703.0000     49.9755
           12          16      0.3667      0.1000   1422.8683    703.0000     50.0160
           12          17      0.3667      0.1067   1423.5387    703.0000     50.0547
           12          18      0.3667      0.1133   1424.1778    703.0000     50.0917
           12          19      0.3667      0.1200   1424.7858    703.0000     50.1269
           12          20      0.3667      0.1267   1425.3633    703.0000     50.1604
           12          21      0.3667      0.1333   1425.9109    703.0000     50.1921
           12          22      0.3667      0.1400   1426.4293    703.0000     50.2223
           12          23      0.3667      0.1467   1426.9193    703.0000     50.2508
           12          24      0.3667      0.1533   1427.3819    703.0000     50.2777
           12          25      0.3667      0.1600   1427.8180    703.0000     50.3031
           12          26      0.3667      0.1667   1428.2287    703.0000     50.3271
           12          27      0.3667      0.1733   1428.6152    703.0000     50.3496
           12          28      0.3667      0.1800   1428.9788    703.0000     50.3709
           12          29      0.3667      0.1867   1429.3208    703.0000     50.3909
           12          30      0.3667      0.1933   1429.6427    703.0000     50.4097
           12          31      0.3667      0.2000   1429.9459    703.0000     50.4274
           13           1      0.4000      0.0000   1409.2694    703.0000     49.2428
           13           2      0.4000      0.0067   1410.3920    703.0000     49.3057
           13           3      0.4000      0.0133   1411.4900    703.0000     49.3675
           13           4      0.4000      0.0200   1412.5622    703.0000     49.4279
           13           5      0.4000      0.0267   1413.6075    703.0000     49.4870
           13           6      0.4000      0.0333   1414.6247    703.0000     49.5446
           13           7      0.4000      0.0400   1415.6129    703.0000     49.6006
           13           8      0.4000      0.0467   1416.5712    703.0000     49.6551
           13           9      0.4000      0.0533   1417.4989    703.0000     49.7080
           13          10      0.4000      0.0600   1418.3953    703.0000     49.7592
           13          11      0.4000      0.0667   1419.2598    703.0000     49.8086
           13          12      0.4000      0.0733   1420.0921    703.0000     49.8563
           13          13      0.4000      0.0800   1420.8919    703.0000     49.9022
           13          14      0.4000      0.0867   1421.6590    703.0000     49.9463
           13          15      0.4000      0.0933   1422.3934    703.0000     49.9886
           13          16      0.4000      0.1000   1423.0950    703.0000     50.0291
           13          17      0.4000      0.1067   1423.7641    703.0000     50.0678
           13          18      0.4000      0.1133   1424.4010    703.0000     50.1046
           13          19      0.4000      0.1200   1425.0060    703.0000     50.1396
           13          20      0.4000      0.1267   1425.5797    703.0000     50.1729
           13          21      0.4000      0.1333   1426.1226    703.0000     50.2044
           13          22      0.4000      0.1400   1426.6356    703.0000     50.2343
           13          23      0.4000      0.1467   1427.1194    703.0000     50.2624
           13          24      0.4000      0.1533   1427.5750    703.0000     50.2889
           13          25      0.4000      0.1600   1428.0034    703.0000     50.3139
           13          26      0.4000      0.1667   1428.4058    703.0000     50.3374
           13          27      0.4000      0.1733   1428.7833    703.0000     50.3594
           13          28      0.4000      0.1800   1429.1372    703.0000     50.3801
           13          29      0.4000      0.1867   1429.4689    703.0000     50.3995
           13          30      0.4000      0.1933   1429.7800    703.0000     50.4177
           13          31      0.4000      0.2000   1430.0718    703.0000     50.4348
           14           1      0.4333      0.0000   1409.3688    703.0000     49.2484
           14           2      0.4333      0.0067   1410.4981    703.0000     49.3117
           14           3      0.4333      0.0133   1411.6025    703.0000     49.3738
           14           4      0.4333      0.0200   1412.6807    703.0000     49.4346
           14           5      0.4333      0.0267   1413.7314    703.0000     49.4940
           14           6      0.4333      0.0333   1414.7537    703.0000     49.5519
           14           7      0.4333      0.0400   1415.7464    703.0000     49.6082
           14           8      0.4333      0.0467   1416.7087    703.0000     49.6630
           14           9      0.4333      0.0533   1417.6399    703.0000     49.7160
           14          10      0.4333      0.0600   1418.5393    703.0000     49.7674
           14          11      0.4333      0.0667   1419.4063    703.0000     49.8170
           14          12      0.4333      0.0733   1420.2405    703.0000     49.8648
           14          13      0.4333      0.0800   1421.0416    703.0000     49.9108
           14          14      0.4333      0.0867   1421.8095    703.0000     49.9550
           14          15      0.4333      0.0933   1422.5441    703.0000     49.9973
           14          16      0.4333      0.1000   1423.2454    703.0000     50.0378
           14          17      0.4333      0.1067   1423.9136    703.0000     50.0764
           14          18      0.4333      0.1133   1424.5490    703.0000     50.1132
           14          19      0.4333      0.1200   1425.1520    703.0000     50.1481
           14          20      0.4333      0.1267   1425.7231    703.0000     50.1812
           14          21      0.4333      0.1333   1426.2630    703.0000     50.2126
           14          22      0.4333      0.1400   1426.7723    703.0000     50.2422
           14          23      0.4333      0.1467   1427.2520    703.0000     50.2701
           14          24      0.4333      0.1533   1427.7030    703.0000     50.2964
           14          25      0.4333      0.1600   1428.1263    703.0000     50.3211
           14          26      0.4333      0.1667   1428.5231    703.0000     50.3442
           14          27      0.4333      0.1733   1428.8946    703.0000     50.3659
           14          28      0.4333      0.1800   1429.2421    703.0000     50.3863
           14          29      0.4333      0.1867   1429.5670    703.0000     50.4053
           14          30      0.4333      0.1933   1429.8709    703.0000     50.4231
           14          31      0.4333      0.2000   1430.1552    703.0000     50.4397
           15           1      0.4667      0.0000   1409.4254    703.0000     49.2515
           15           2      0.4667      0.0067   1410.5586    703.0000     49.3151
           15           3      0.4667      0.0133   1411.6666    703.0000     49.3774
           15           4      0.4667      0.0200   1412.7482    703.0000     49.4384
           15           5      0.4667      0.0267   1413.8021    703.0000     49.4980
           15           6      0.4667      0.0333   1414.8272    703.0000     49.5560
           15           7      0.4667      0.0400   1415.8225    703.0000     49.6125
           15           8      0.4667      0.0467   1416.7871    703.0000     49.6674
           15           9      0.4667      0.0533   1417.7203    703.0000     49.7206
           15          10      0.4667      0.0600   1418.6213    703.0000     49.7721
           15          11      0.4667      0.0667   1419.4897    703.0000     49.8218
           15          12      0.4667      0.0733   1420.3250    703.0000     49.8697
           15          13      0.4667      0.0800   1421.1269    703.0000     49.9157
           15          14      0.4667      0.0867   1421.8952    703.0000     49.9599
           15          15      0.4667      0.0933   1422.6299    703.0000     50.0023
           15          16      0.4667      0.1000   1423.3310    703.0000     50.0427
           15          17      0.4667      0.1067   1423.9987    703.0000     50.0813
           15          18      0.4667      0.1133   1424.6333    703.0000     50.1181
           15          19      0.4667      0.1200   1425.2351    703.0000     50.1529
           15          20      0.4667      0.1267   1425.8048    703.0000     50.1860
           15          21      0.4667      0.1333   1426.3429    703.0000     50.2172
           15          22      0.4667      0.1400   1426.8502    703.0000     50.2467
           15          23      0.4667      0.1467   1427.3276    703.0000     50.2745
           15          24      0.4667      0.1533   1427.7759    703.0000     50.3007
           15          25      0.4667      0.1600   1428.1963    703.0000     50.3252
           15          26      0.4667      0.1667   1428.5899    703.0000     50.3481
           15          27      0.4667      0.1733   1428.9580    703.0000     50.3697
           15          28      0.4667      0.1800   1429.3018    703.0000     50.3898
           15          29      0.4667      0.1867   1429.6229    703.0000     50.4085
           15          30      0.4667      0.1933   1429.9227    703.0000     50.4261
           15          31      0.4667      0.2000   1430.2027    703.0000     50.4425
           16           1      0.5000      0.0000   1409.4438    703.0000     49.2526
           16           2      0.5000      0.0067   1410.5782    703.0000     49.3162
           16           3      0.5000      0.0133   1411.6875    703.0000     49.3786
           16           4      0.5000      0.0200   1412.7701    703.0000     49.4397
           16           5      0.5000      0.0267   1413.8250    703.0000     49.4993
           16           6      0.5000      0.0333   1414.8511    703.0000     49.5574
           16           7      0.5000      0.0400   1415.8472    703.0000     49.6140
           16           8      0.5000      0.0467   1416.8126    703.0000     49.6689
           16           9      0.5000      0.0533   1417.7464    703.0000     49.7221
           16          10      0.5000      0.0600   1418.6480    703.0000     49.7736
           16          11      0.5000      0.0667   1419.5169    703.0000     49.8233
           16          12      0.5000      0.0733   1420.3525    703.0000     49.8713
           16          13      0.5000      0.0800   1421.1546    703.0000     49.9173
           16          14      0.5000      0.0867   1421.9231    703.0000     49.9615
           16          15      0.5000      0.0933   1422.6578    703.0000     50.0039
           16          16      0.5000      0.1000   1423.3589    703.0000     50.0443
           16          17      0.5000      0.1067   1424.0264    703.0000     50.0829
           16          18      0.5000      0.1133   1424.6607    703.0000     50.1196
           16          19      0.5000      0.1200   1425.2622    703.0000     50.1545
           16          20      0.5000      0.1267   1425.8314    703.0000     50.1875
           16          21      0.5000      0.1333   1426.3689    703.0000     50.2188
           16          22      0.5000      0.1400   1426.8755    703.0000     50.2482
           16          23      0.5000      0.1467   1427.3521    703.0000     50.2760
           16          24      0.5000      0.1533   1427.7996    703.0000     50.3020
           16          25      0.5000      0.1600   1428.2191    703.0000     50.3265
           16          26      0.5000      0.1667   1428.6116    703.0000     50.3494
           16          27      0.5000      0.1733   1428.9786    703.0000     50.3709
           16          28      0.5000      0.1800   1429.3213    703.0000     50.3909
           16          29      0.5000      0.1867   1429.6411    703.0000     50.4096
           16          30      0.5000      0.1933   1429.9395    703.0000     50.4271
           16          31      0.5000      0.2000   1430.2182    703.0000     50.4434
           17           1      0.5333      0.0000   1409.4255    703.0000     49.2515
           17           2      0.5333      0.0067   1410.5587    703.0000     49.3151
           17           3      0.5333      0.0133   1411.6667    703.0000     49.3774
           17           4      0.5333      0.0200   1412.7483    703.0000     49.4384
           17           5      0.5333      0.0267   1413.8022    703.0000     49.4980
           17           6      0.5333      0.0333   1414.8273    703.0000     49.5561
           17           7      0.5333      0.0400   1415.8226    703.0000     49.6126
           17           8      0.5333      0.0467   1416.7873    703.0000     49.6674
           17           9      0.5333      0.0533   1417.7205    703.0000     49.7206
           17          10      0.5333      0.0600   1418.6215    703.0000     49.7721
           17          11      0.5333      0.0667   1419.4899    703.0000     49.8218
           17          12      0.5333      0.0733   1420.3252    703.0000     49.8697
           17          13      0.5333      0.0800   1421.1271    703.0000     49.9157
           17          14      0.5333      0.0867   1421.8954    703.0000     49.9600
           17          15      0.5333      0.0933   1422.6301    703.0000     50.0023
           17          16      0.5333      0.1000   1423.3312    703.0000     50.0427
           17          17      0.5333      0.1067   1423.9989    703.0000     50.0813
           17          18      0.5333      0.1133   1424.6334    703.0000     50.1181
           17          19      0.5333      0.1200   1425.2353    703.0000     50.1529
           17          20      0.5333      0.1267   1425.8050    703.0000     50.1860
           17          21      0.5333      0.1333   1426.3431    703.0000     50.2173
           17          22      0.5333      0.1400   1426.8504    703.0000     50.2468
           17          23      0.5333      0.1467   1427.3277    703.0000     50.2745
           17          24      0.5333      0.1533   1427.7761    703.0000     50.3007
           17          25      0.5333      0.1600   1428.1964    703.0000     50.3252
           17          26      0.5333      0.1667   1428.5901    703.0000     50.3482
           17          27      0.5333      0.1733   1428.9581    703.0000     50.3697
           17          28      0.5333      0.1800   1429.3020    703.0000     50.3898
           17          29      0.5333      0.1867   1429.6230    703.0000     50.4085
           17          30      0.5333      0.1933   1429.9228    703.0000     50.4261
           17          31      0.5333      0.2000   1430.2028    703.0000     50.4425
           18           1      0.5667      0.0000   1409.3690    703.0000     49.2484
           18           2      0.5667      0.0067   1410.4983    703.0000     49.3117
           18           3      0.5667      0.0133   1411.6027    703.0000     49.3738
           18           4      0.5667      0.0200   1412.6809    703.0000     49.4346
           18           5      0.5667      0.0267   1413.7317    703.0000     49.4940
           18           6      0.5667      0.0333   1414.7540    703.0000     49.5519
           18           7      0.5667      0.0400   1415.7467    703.0000     49.6082
           18           8      0.5667      0.0467   1416.7091    703.0000     49.6630
           18           9      0.5667      0.0533   1417.6403    703.0000     49.7161
           18          10      0.5667      0.0600   1418.5396    703.0000     49.7674
           18          11      0.5667      0.0667   1419.4066    703.0000     49.8170
           18          12      0.5667      0.0733   1420.2408    703.0000     49.8649
           18          13      0.5667      0.0800   1421.0420    703.0000     49.9109
           18          14      0.5667      0.0867   1421.8099    703.0000     49.9550
           18          15      0.5667      0.0933   1422.5444    703.0000     49.9973
           18          16      0.5667      0.1000   1423.2457    703.0000     50.0378
           18          17      0.5667      0.1067   1423.9139    703.0000     50.0764
           18          18      0.5667      0.1133   1424.5493    703.0000     50.1132
           18          19      0.5667      0.1200   1425.1523    703.0000     50.1481
           18          20      0.5667      0.1267   1425.7234    703.0000     50.1813
           18          21      0.5667      0.1333   1426.2633    703.0000     50.2126
           18          22      0.5667      0.1400   1426.7727    703.0000     50.2422
           18          23      0.5667      0.1467   1427.2524    703.0000     50.2702
           18          24      0.5667      0.1533   1427.7033    703.0000     50.2964
           18          25      0.5667      0.1600   1428.1266    703.0000     50.3211
           18          26      0.5667      0.1667   1428.5234    703.0000     50.3443
           18          27      0.5667      0.1733   1428.8949    703.0000     50.3660
           18          28      0.5667      0.1800   1429.2423    703.0000     50.3863
           18          29      0.5667      0.1867   1429.5673    703.0000     50.4053
           18          30      0.5667      0.1933   1429.8711    703.0000     50.4231
           18          31      0.5667      0.2000   1430.1554    703.0000     50.4397
           19           1      0.6000      0.0000   1409.2698    703.0000     49.2428
           19           2      0.6000      0.0067   1410.3924    703.0000     49.3058
           19           3      0.6000      0.0133   1411.4904    703.0000     49.3675
           19           4      0.6000      0.0200   1412.5627    703.0000     49.4279
           19           5      0.6000      0.0267   1413.6080    703.0000     49.4870
           19           6      0.6000      0.0333   1414.6252    703.0000     49.5446
           19           7      0.6000      0.0400   1415.6135    703.0000     49.6007
           19           8      0.6000      0.0467   1416.5718    703.0000     49.6552
           19           9      0.6000      0.0533   1417.4994    703.0000     49.7080
           19          10      0.6000      0.0600   1418.3958    703.0000     49.7592
           19          11      0.6000      0.0667   1419.2604    703.0000     49.8087
           19          12      0.6000      0.0733   1420.0927    703.0000     49.8564
           19          13      0.6000      0.0800   1420.8925    703.0000     49.9023
           19          14      0.6000      0.0867   1421.6596    703.0000     49.9464
           19          15      0.6000      0.0933   1422.3940    703.0000     49.9887
           19          16      0.6000      0.1000   1423.0956    703.0000     50.0291
           19          17      0.6000      0.1067   1423.7647    703.0000     50.0678
           19          18      0.6000      0.1133   1424.4016    703.0000     50.1046
           19          19      0.6000      0.1200   1425.0066    703.0000     50.1397
           19          20      0.6000      0.1267   1425.5802    703.0000     50.1730
           19          21      0.6000      0.1333   1426.1232    703.0000     50.2045
           19          22      0.6000      0.1400   1426.6361    703.0000     50.2343
           19          23      0.6000      0.1467   1427.1200    703.0000     50.2624
           19          24      0.6000      0.1533   1427.5755    703.0000     50.2890
           19          25      0.6000      0.1600   1428.0039    703.0000     50.3140
           19          26      0.6000      0.1667   1428.4062    703.0000     50.3374
           19          27      0.6000      0.1733   1428.7837    703.0000     50.3595
           19          28      0.6000      0.1800   1429.1376    703.0000     50.3801
           19          29      0.6000      0.1867   1429.4693    703.0000     50.3995
           19          30      0.6000      0.1933   1429.7803    703.0000     50.4177
           19          31      0.6000      0.2000   1430.0721    703.0000     50.4348
           20           1      0.6333      0.0000   1409.1204    703.0000     49.2344
           20           2      0.6333      0.0067   1410.2327    703.0000     49.2968
           20           3      0.6333      0.0133   1411.3212    703.0000     49.3580
           20           4      0.6333      0.0200   1412.3845    703.0000     49.4179
           20           5      0.6333      0.0267   1413.4215    703.0000     49.4765
           20           6      0.6333      0.0333   1414.4312    703.0000     49.5336
           20           7      0.6333      0.0400   1415.4126    703.0000     49.5893
           20           8      0.6333      0.0467   1416.3648    703.0000     49.6434
           20           9      0.6333      0.0533   1417.2872    703.0000     49.6959
           20          10      0.6333      0.0600   1418.1791    703.0000     49.7468
           20          11      0.6333      0.0667   1419.0399    703.0000     49.7960
           20          12      0.6333      0.0733   1419.8694    703.0000     49.8435
           20          13      0.6333      0.0800   1420.6671    703.0000     49.8893
           20          14      0.6333      0.0867   1421.4330    703.0000     49.9333
           20          15      0.6333      0.0933   1422.1670    703.0000     49.9756
           20          16      0.6333      0.1000   1422.8691    703.0000     50.0161
           20          17      0.6333      0.1067   1423.5396    703.0000     50.0548
           20          18      0.6333      0.1133   1424.1786    703.0000     50.0917
           20          19      0.6333      0.1200   1424.7866    703.0000     50.1269
           20          20      0.6333      0.1267   1425.3641    703.0000     50.1604
           20          21      0.6333      0.1333   1425.9117    703.0000     50.1922
           20          22      0.6333      0.1400   1426.4301    703.0000     50.2223
           20          23      0.6333      0.1467   1426.9201    703.0000     50.2508
           20          24      0.6333      0.1533   1427.3826    703.0000     50.2777
           20          25      0.6333      0.1600   1427.8187    703.0000     50.3031
           20          26      0.6333      0.1667   1428.2293    703.0000     50.3271
           20          27      0.6333      0.1733   1428.6158    703.0000     50.3497
           20          28      0.6333      0.1800   1428.9794    703.0000     50.3709
           20          29      0.6333      0.1867   1429.3214    703.0000     50.3909
           20          30      0.6333      0.1933   1429.6432    703.0000     50.4097
           20          31      0.6333      0.2000   1429.9464    703.0000     50.4275
           21           1      0.6667      0.0000   1408.9098    703.0000     49.2227
           21           2      0.6667      0.0067   1410.0078    703.0000     49.2842
           21           3      0.6667      0.0133   1411.0827    703.0000     49.3446
           21           4      0.6667      0.0200   1412.1334    703.0000     49.4037
           21           5      0.6667      0.0267   1413.1587    703.0000     49.4616
           21           6      0.6667      0.0333   1414.1577    703.0000     49.5181
           21           7      0.6667      0.0400   1415.1294    703.0000     49.5732
           21           8      0.6667      0.0467   1416.0731    703.0000     49.6268
           21           9      0.6667      0.0533   1416.9879    703.0000     49.6789
           21          10      0.6667      0.0600   1417.8734    703.0000     49.7294
           21          11      0.6667      0.0667   1418.7290    703.0000     49.7782
           21          12      0.6667      0.0733   1419.5543    703.0000     49.8255
           21          13      0.6667      0.0800   1420.3491    703.0000     49.8711
           21          14      0.6667      0.0867   1421.1133    703.0000     49.9150
           21          15      0.6667      0.0933   1421.8467    703.0000     49.9571
           21          16      0.6667      0.1000   1422.5494    703.0000     49.9976
           21          17      0.6667      0.1067   1423.2217    703.0000     50.0364
           21          18      0.6667      0.1133   1423.8637    703.0000     50.0735
           21          19      0.6667      0.1200   1424.4759    703.0000     50.1089
           21          20      0.6667      0.1267   1425.0588    703.0000     50.1427
           21          21      0.6667      0.1333   1425.6128    703.0000     50.1748
           21          22      0.6667      0.1400   1426.1388    703.0000     50.2054
           21          23      0.6667      0.1467   1426.6376    703.0000     50.2344
           21          24      0.6667      0.1533   1427.1099    703.0000     50.2619
           21          25      0.6667      0.1600   1427.5567    703.0000     50.2879
           21          26      0.6667      0.1667   1427.9792    703.0000     50.3125
           21          27      0.6667      0.1733   1428.3784    703.0000     50.3358
           21          28      0.6667      0.1800   1428.7557    703.0000     50.3578
           21          29      0.6667      0.1867   1429.1122    703.0000     50.3787
           21          30      0.6667      0.1933   1429.4493    703.0000     50.3984
           21          31      0.6667      0.2000   1429.7685    703.0000     50.4171
           22           1      0.7000      0.0000   1408.6237    703.0000     49.2066
           22           2      0.7000      0.0067   1409.7021    703.0000     49.2670
           22           3      0.7000      0.0133   1410.7586    703.0000     49.3263
           22           4      0.7000      0.0200   1411.7921    703.0000     49.3845
           22           5      0.7000      0.0267   1412.8015    703.0000     49.4414
           22           6      0.7000      0.0333   1413.7859    703.0000     49.4971
           22           7      0.7000      0.0400   1414.7445    703.0000     49.5514
           22           8      0.7000      0.0467   1415.6763    703.0000     49.6042
           22           9      0.7000      0.0533   1416.5808    703.0000     49.6557
           22          10      0.7000      0.0600   1417.4575    703.0000     49.7056
           22          11      0.7000      0.0667   1418.3058    703.0000     49.7541
           22          12      0.7000      0.0733   1419.1255    703.0000     49.8009
           22          13      0.7000      0.0800   1419.9162    703.0000     49.8462
           22          14      0.7000      0.0867   1420.6778    703.0000     49.8899
           22          15      0.7000      0.0933   1421.4103    703.0000     49.9320
           22          16      0.7000      0.1000   1422.1138    703.0000     49.9725
           22          17      0.7000      0.1067   1422.7884    703.0000     50.0114
           22          18      0.7000      0.1133   1423.4344    703.0000     50.0487
           22          19      0.7000      0.1200   1424.0522    703.0000     50.0844
           22          20      0.7000      0.1267   1424.6422    703.0000     50.1186
           22          21      0.7000      0.1333   1425.2050    703.0000     50.1512
           22          22      0.7000      0.1400   1425.7413    703.0000     50.1823
           22          23      0.7000      0.1467   1426.2518    703.0000     50.2119
           22          24      0.7000      0.1533   1426.7374    703.0000     50.2402
           22          25      0.7000      0.1600   1427.1989    703.0000     50.2670
           22          26      0.7000      0.1667   1427.6375    703.0000     50.2926
           22          27      0.7000      0.1733   1428.0541    703.0000     50.3169
           22          28      0.7000      0.1800   1428.4499    703.0000     50.3400
           22          29      0.7000      0.1867   1428.8262    703.0000     50.3620
           22          30      0.7000      0.1933   1429.1842    703.0000     50.3829
           22          31      0.7000      0.2000   1429.5254    703.0000     50.4028
           23           1      0.7333      0.0000   1408.2439    703.0000     49.1854
           23           2      0.7333      0.0067   1409.2963    703.0000     49.2443
           23           3      0.7333      0.0133   1410.3284    703.0000     49.3022
           23           4      0.7333      0.0200   1411.3390    703.0000     49.3590
           23           5      0.7333      0.0267   1412.3272    703.0000     49.4147
           23           6      0.7333      0.0333   1413.2921    703.0000     49.4691
           23           7      0.7333      0.0400   1414.2329    703.0000     49.5224
           23           8      0.7333      0.0467   1415.1489    703.0000     49.5743
           23           9      0.7333      0.0533   1416.0396    703.0000     49.6249
           23          10      0.7333      0.0600   1416.9043    703.0000     49.6741
           23          11      0.7333      0.0667   1417.7427    703.0000     49.7219
           23          12      0.7333      0.0733   1418.5545    703.0000     49.7683
           23          13      0.7333      0.0800   1419.3395    703.0000     49.8132
           23          14      0.7333      0.0867   1420.0975    703.0000     49.8566
           23          15      0.7333      0.0933   1420.8286    703.0000     49.8986
           23          16      0.7333      0.1000   1421.5328    703.0000     49.9391
           23          17      0.7333      0.1067   1422.2102    703.0000     49.9781
           23          18      0.7333      0.1133   1422.8613    703.0000     50.0156
           23          19      0.7333      0.1200   1423.4862    703.0000     50.0517
           23          20      0.7333      0.1267   1424.0856    703.0000     50.0864
           23          21      0.7333      0.1333   1424.6599    703.0000     50.1196
           23          22      0.7333      0.1400   1425.2097    703.0000     50.1515
           23          23      0.7333      0.1467   1425.7358    703.0000     50.1820
           23          24      0.7333      0.1533   1426.2389    703.0000     50.2112
           23          25      0.7333      0.1600   1426.7200    703.0000     50.2392
           23          26      0.7333      0.1667   1427.1799    703.0000     50.2659
           23          27      0.7333      0.1733   1427.6196    703.0000     50.2915
           23          28      0.7333      0.1800   1428.0403    703.0000     50.3161
           23          29      0.7333      0.1867   1428.4431    703.0000     50.3396
           23          30      0.7333      0.1933   1428.8291    703.0000     50.3621
           23          31      0.7333      0.2000   1429.1996    703.0000     50.3838
           24           1      0.7667      0.0000   1407.7483    703.0000     49.1577
           24           2      0.7667      0.0067   1408.7667    703.0000     49.2146
           24           3      0.7667      0.0133   1409.7667    703.0000     49.2707
           24           4      0.7667      0.0200   1410.7473    703.0000     49.3257
           24           5      0.7667      0.0267   1411.7076    703.0000     49.3797
           24           6      0.7667      0.0333   1412.6468    703.0000     49.4327
           24           7      0.7667      0.0400   1413.5643    703.0000     49.4845
           24           8      0.7667      0.0467   1414.4593    703.0000     49.5352
           24           9      0.7667      0.0533   1415.3314    703.0000     49.5846
           24          10      0.7667      0.0600   1416.1801    703.0000     49.6329
           24          11      0.7667      0.0667   1417.0051    703.0000     49.6798
           24          12      0.7667      0.0733   1417.8062    703.0000     49.7255
           24          13      0.7667      0.0800   1418.5831    703.0000     49.7699
           24          14      0.7667      0.0867   1419.3359    703.0000     49.8130
           24          15      0.7667      0.0933   1420.0645    703.0000     49.8547
           24          16      0.7667      0.1000   1420.7690    703.0000     49.8952
           24          17      0.7667      0.1067   1421.4497    703.0000     49.9343
           24          18      0.7667      0.1133   1422.1068    703.0000     49.9721
           24          19      0.7667      0.1200   1422.7407    703.0000     50.0087
           24          20      0.7667      0.1267   1423.3518    703.0000     50.0439
           24          21      0.7667      0.1333   1423.9407    703.0000     50.0780
           24          22      0.7667      0.1400   1424.5079    703.0000     50.1108
           24          23      0.7667      0.1467   1425.0541    703.0000     50.1424
           24          24      0.7667      0.1533   1425.5801    703.0000     50.1729
           24          25      0.7667      0.1600   1426.0866    703.0000     50.2023
           24          26      0.7667      0.1667   1426.5744    703.0000     50.2307
           24          27      0.7667      0.1733   1427.0446    703.0000     50.2581
           24          28      0.7667      0.1800   1427.4980    703.0000     50.2845
           24          29      0.7667      0.1867   1427.9356    703.0000     50.3100
           24          30      0.7667      0.1933   1428.3586    703.0000     50.3346
           24          31      0.7667      0.2000   1428.7680    703.0000     50.3585
           25           1      0.8000      0.0000   1407.1105    703.0000     49.1221
           25           2      0.8000      0.0067   1408.0853    703.0000     49.1765
           25           3      0.8000      0.0133   1409.0439    703.0000     49.2302
           25           4      0.8000      0.0200   1409.9856    703.0000     49.2829
           25           5      0.8000      0.0267   1410.9096    703.0000     49.3348
           25           6      0.8000      0.0333   1411.8152    703.0000     49.3858
           25           7      0.8000      0.0400   1412.7020    703.0000     49.4358
           25           8      0.8000      0.0467   1413.5692    703.0000     49.4848
           25           9      0.8000      0.0533   1414.4166    703.0000     49.5328
           25          10      0.8000      0.0600   1415.2439    703.0000     49.5797
           25          11      0.8000      0.0667   1416.0507    703.0000     49.6255
           25          12      0.8000      0.0733   1416.8369    703.0000     49.6703
           25          13      0.8000      0.0800   1417.6024    703.0000     49.7139
           25          14      0.8000      0.0867   1418.3473    703.0000     49.7564
           25          15      0.8000      0.0933   1419.0715    703.0000     49.7978
           25          16      0.8000      0.1000   1419.7754    703.0000     49.8382
           25          17      0.8000      0.1067   1420.4592    703.0000     49.8774
           25          18      0.8000      0.1133   1421.1230    703.0000     49.9155
           25          19      0.8000      0.1200   1421.7675    703.0000     49.9526
           25          20      0.8000      0.1267   1422.3929    703.0000     49.9886
           25          21      0.8000      0.1333   1422.9998    703.0000     50.0236
           25          22      0.8000      0.1400   1423.5888    703.0000     50.0576
           25          23      0.8000      0.1467   1424.1604    703.0000     50.0907
           25          24      0.8000      0.1533   1424.7155    703.0000     50.1228
           25          25      0.8000      0.1600   1425.2546    703.0000     50.1541
           25          26      0.8000      0.1667   1425.7785    703.0000     50.1845
           25          27      0.8000      0.1733   1426.2881    703.0000     50.2141
           25          28      0.8000      0.1800   1426.7841    703.0000     50.2429
           25          29      0.8000      0.1867   1427.2675    703.0000     50.2710
           25          30      0.8000      0.1933   1427.7389    703.0000     50.2985
           25          31      0.8000      0.2000   1428.1995    703.0000     50.3254
           26           1      0.8333      0.0000   1406.3009    703.0000     49.0771
           26           2      0.8333      0.0067   1407.2200    703.0000     49.1283
           26           3      0.8333      0.0133   1408.1258    703.0000     49.1788
           26           4      0.8333      0.0200   1409.0176    703.0000     49.2287
           26           5      0.8333      0.0267   1409.8948    703.0000     49.2778
           26           6      0.8333      0.0333   1410.7569    703.0000     49.3263
           26           7      0.8333      0.0400   1411.6034    703.0000     49.3739
           26           8      0.8333      0.0467   1412.4341    703.0000     49.4207
           26           9      0.8333      0.0533   1413.2486    703.0000     49.4667
           26          10      0.8333      0.0600   1414.0468    703.0000     49.5118
           26          11      0.8333      0.0667   1414.8286    703.0000     49.5561
           26          12      0.8333      0.0733   1415.5939    703.0000     49.5996
           26          13      0.8333      0.0800   1416.3428    703.0000     49.6421
           26          14      0.8333      0.0867   1417.0754    703.0000     49.6838
           26          15      0.8333      0.0933   1417.7919    703.0000     49.7247
           26          16      0.8333      0.1000   1418.4927    703.0000     49.7647
           26          17      0.8333      0.1067   1419.1781    703.0000     49.8039
           26          18      0.8333      0.1133   1419.8484    703.0000     49.8423
           26          19      0.8333      0.1200   1420.5041    703.0000     49.8800
           26          20      0.8333      0.1267   1421.1458    703.0000     49.9168
           26          21      0.8333      0.1333   1421.7740    703.0000     49.9530
           26          22      0.8333      0.1400   1422.3892    703.0000     49.9884
           26          23      0.8333      0.1467   1422.9922    703.0000     50.0232
           26          24      0.8333      0.1533   1423.5835    703.0000     50.0573
           26          25      0.8333      0.1600   1424.1637    703.0000     50.0909
           26          26      0.8333      0.1667   1424.7336    703.0000     50.1239
           26          27      0.8333      0.1733   1425.2938    703.0000     50.1563
           26          28      0.8333      0.1800   1425.8450    703.0000     50.1883
           26          29      0.8333      0.1867   1426.3877    703.0000     50.2198
           26          30      0.8333      0.1933   1426.9227    703.0000     50.2510
           26          31      0.8333      0.2000   1427.4506    703.0000     50.2817
           27           1      0.8667      0.0000   1405.2872    703.0000     49.0207
           27           2      0.8667      0.0067   1406.1365    703.0000     49.0679
           27           3      0.8667      0.0133   1406.9756    703.0000     49.1146
           27           4      0.8667      0.0200   1407.8040    703.0000     49.1608
           27           5      0.8667      0.0267   1408.6213    703.0000     49.2065
           27           6      0.8667      0.0333   1409.4271    703.0000     49.2516
           27           7      0.8667      0.0400   1410.2213    703.0000     49.2962
           27           8      0.8667      0.0467   1411.0036    703.0000     49.3401
           27           9      0.8667      0.0533   1411.7741    703.0000     49.3835
           27          10      0.8667      0.0600   1412.5327    703.0000     49.4263
           27          11      0.8667      0.0667   1413.2795    703.0000     49.4684
           27          12      0.8667      0.0733   1414.0148    703.0000     49.5100
           27          13      0.8667      0.0800   1414.7387    703.0000     49.5510
           27          14      0.8667      0.0867   1415.4516    703.0000     49.5915
           27          15      0.8667      0.0933   1416.1540    703.0000     49.6314
           27          16      0.8667      0.1000   1416.8464    703.0000     49.6708
           27          17      0.8667      0.1067   1417.5292    703.0000     49.7097
           27          18      0.8667      0.1133   1418.2031    703.0000     49.7482
           27          19      0.8667      0.1200   1418.8687    703.0000     49.7862
           27          20      0.8667      0.1267   1419.5267    703.0000     49.8239
           27          21      0.8667      0.1333   1420.1779    703.0000     49.8612
           27          22      0.8667      0.1400   1420.8229    703.0000     49.8983
           27          23      0.8667      0.1467   1421.4624    703.0000     49.9350
           27          24      0.8667      0.1533   1422.0972    703.0000     49.9716
           27          25      0.8667      0.1600   1422.7280    703.0000     50.0079
           27          26      0.8667      0.1667   1423.3553    703.0000     50.0441
           27          27      0.8667      0.1733   1423.9796    703.0000     50.0802
           27          28      0.8667      0.1800   1424.6016    703.0000     50.1162
           27          29      0.8667      0.1867   1425.2216    703.0000     50.1521
           27          30      0.8667      0.1933   1425.8399    703.0000     50.1880
           27          31      0.8667      0.2000   1426.4568    703.0000     50.2239
           28           1      0.9000      0.0000   1404.0382    703.0000     48.9515
           28           2      0.9000      0.0067   1404.8012    703.0000     48.9937
           28           3      0.9000      0.0133   1405.5572    703.0000     49.0357
           28           4      0.9000      0.0200   1406.3059    703.0000     49.0773
           28           5      0.9000      0.0267   1407.0471    703.0000     49.1186
           28           6      0.9000      0.0333   1407.7807    703.0000     49.1595
           28           7      0.9000      0.0400   1408.5067    703.0000     49.2001
           28           8      0.9000      0.0467   1409.2252    703.0000     49.2403
           28           9      0.9000      0.0533   1409.9363    703.0000     49.2802
           28          10      0.9000      0.0600   1410.6404    703.0000     49.3197
           28          11      0.9000      0.0667   1411.3377    703.0000     49.3589
           28          12      0.9000      0.0733   1412.0288    703.0000     49.3978
           28          13      0.9000      0.0800   1412.7143    703.0000     49.4365
           28          14      0.9000      0.0867   1413.3948    703.0000     49.4749
           28          15      0.9000      0.0933   1414.0711    703.0000     49.5132
           28          16      0.9000      0.1000   1414.7440    703.0000     49.5513
           28          17      0.9000      0.1067   1415.4145    703.0000     49.5894
           28          18      0.9000      0.1133   1416.0835    703.0000     49.6274
           28          19      0.9000      0.1200   1416.7522    703.0000     49.6654
           28          20      0.9000      0.1267   1417.4215    703.0000     49.7036
           28          21      0.9000      0.1333   1418.0927    703.0000     49.7419
           28          22      0.9000      0.1400   1418.7669    703.0000     49.7804
           28          23      0.9000      0.1467   1419.4451    703.0000     49.8192
           28          24      0.9000      0.1533   1420.1284    703.0000     49.8584
           28          25      0.9000      0.1600   1420.8178    703.0000     49.8980
           28          26      0.9000      0.1667   1421.5140    703.0000     49.9380
           28          27      0.9000      0.1733   1422.2179    703.0000     49.9785
           28          28      0.9000      0.1800   1422.9298    703.0000     50.0196
           28          29      0.9000      0.1867   1423.6500    703.0000     50.0612
           28          30      0.9000      0.1933   1424.3785    703.0000     50.1033
           28          31      0.9000      0.2000   1425.1149    703.0000     50.1460
           29           1      0.9333      0.0000   1402.5297    703.0000     48.8681
           29           2      0.9333      0.0067   1403.1880    703.0000     48.9044
           29           3      0.9333      0.0133   1403.8422    703.0000     48.9406
           29           4      0.9333      0.0200   1404.4922    703.0000     48.9766
           29           5      0.9333      0.0267   1405.1380    703.0000     49.0124
           29           6      0.9333      0.0333   1405.7797    703.0000     49.0481
           29           7      0.9333      0.0400   1406.4175    703.0000     49.0835
           29           8      0.9333      0.0467   1407.0518    703.0000     49.1189
           29           9      0.9333      0.0533   1407.6829    703.0000     49.1541
           29          10      0.9333      0.0600   1408.3115    703.0000     49.1892
           29          11      0.9333      0.0667   1408.9382    703.0000     49.2242
           29          12      0.9333      0.0733   1409.5638    703.0000     49.2593
           29          13      0.9333      0.0800   1410.1893    703.0000     49.2944
           29          14      0.9333      0.0867   1410.8159    703.0000     49.3296
           29          15      0.9333      0.0933   1411.4446    703.0000     49.3649
           29          16      0.9333      0.1000   1412.0770    703.0000     49.4006
           29          17      0.9333      0.1067   1412.7146    703.0000     49.4365
           29          18      0.9333      0.1133   1413.3590    703.0000     49.4729
           29          19      0.9333      0.1200   1414.0120    703.0000     49.5099
           29          20      0.9333      0.1267   1414.6757    703.0000     49.5475
           29          21      0.9333      0.1333   1415.3520    703.0000     49.5858
           29          22      0.9333      0.1400   1416.0430    703.0000     49.6251
           29          23      0.9333      0.1467   1416.7509    703.0000     49.6654
           29          24      0.9333      0.1533   1417.4779    703.0000     49.7068
           29          25      0.9333      0.1600   1418.2261    703.0000     49.7495
           29          26      0.9333      0.1667   1418.9973    703.0000     49.7936
           29          27      0.9333      0.1733   1419.7932    703.0000     49.8392
           29          28      0.9333      0.1800   1420.6152    703.0000     49.8863
           29          29      0.9333      0.1867   1421.4639    703.0000     49.9351
           29          30      0.9333      0.1933   1422.3393    703.0000     49.9855
           29          31      0.9333      0.2000   1423.2406    703.0000     50.0375
           30           1      0.9667      0.0000   1400.7535    703.0000     48.7703
           30           2      0.9667      0.0067   1401.2879    703.0000     48.7997
           30           3      0.9667      0.0133   1401.8202    703.0000     48.8290
           30           4      0.9667      0.0200   1402.3507    703.0000     48.8582
           30           5      0.9667      0.0267   1402.8793    703.0000     48.8874
           30           6      0.9667      0.0333   1403.4063    703.0000     48.9165
           30           7      0.9667      0.0400   1403.9321    703.0000     48.9456
           30           8      0.9667      0.0467   1404.4572    703.0000     48.9747
           30           9      0.9667      0.0533   1404.9821    703.0000     49.0038
           30          10      0.9667      0.0600   1405.5076    703.0000     49.0330
           30          11      0.9667      0.0667   1406.0346    703.0000     49.0622
           30          12      0.9667      0.0733   1406.5642    703.0000     49.0917
           30          13      0.9667      0.0800   1407.0977    703.0000     49.1214
           30          14      0.9667      0.0867   1407.6364    703.0000     49.1515
           30          15      0.9667      0.0933   1408.1822    703.0000     49.1820
           30          16      0.9667      0.1000   1408.7370    703.0000     49.2130
           30          17      0.9667      0.1067   1409.3029    703.0000     49.2447
           30          18      0.9667      0.1133   1409.8825    703.0000     49.2772
           30          19      0.9667      0.1200   1410.4786    703.0000     49.3106
           30          20      0.9667      0.1267   1411.0944    703.0000     49.3452
           30          21      0.9667      0.1333   1411.7335    703.0000     49.3812
           30          22      0.9667      0.1400   1412.3998    703.0000     49.4188
           30          23      0.9667      0.1467   1413.0977    703.0000     49.4582
           30          24      0.9667      0.1533   1413.8322    703.0000     49.4997
           30          25      0.9667      0.1600   1414.6085    703.0000     49.5436
           30          26      0.9667      0.1667   1415.4322    703.0000     49.5904
           30          27      0.9667      0.1733   1416.3091    703.0000     49.6402
           30          28      0.9667      0.1800   1417.2449    703.0000     49.6935
           30          29      0.9667      0.1867   1418.2450    703.0000     49.7506
           30          30      0.9667      0.1933   1419.3133    703.0000     49.8117
           30          31      0.9667      0.2000   1420.4513    703.0000     49.8769
           31           1      1.0000      0.0000   1398.7256    703.0000     48.6591
           31           2      1.0000      0.0067   1399.1177    703.0000     48.6806
           31           3      1.0000      0.0133   1399.5088    703.0000     48.7020
           31           4      1.0000      0.0200   1399.8989    703.0000     48.7234
           31           5      1.0000      0.0267   1400.2882    703.0000     48.7448
           31           6      1.0000      0.0333   1400.6770    703.0000     48.7661
           31           7      1.0000      0.0400   1401.0654    703.0000     48.7875
           31           8      1.0000      0.0467   1401.4540    703.0000     48.8088
           31           9      1.0000      0.0533   1401.8433    703.0000     48.8303
           31          10      1.0000      0.0600   1402.2339    703.0000     48.8518
           31          11      1.0000      0.0667   1402.6267    703.0000     48.8735
           31          12      1.0000      0.0733   1403.0226    703.0000     48.8953
           31          13      1.0000      0.0800   1403.4228    703.0000     48.9174
           31          14      1.0000      0.0867   1403.8286    703.0000     48.9399
           31          15      1.0000      0.0933   1404.2417    703.0000     48.9627
           31          16      1.0000      0.1000   1404.6638    703.0000     48.9861
           31          17      1.0000      0.1067   1405.0972    703.0000     49.0102
           31          18      1.0000      0.1133   1405.5444    703.0000     49.0350
           31          19      1.0000      0.1200   1406.0086    703.0000     49.0608
           31          20      1.0000      0.1267   1406.4934    703.0000     49.0878
           31          21      1.0000      0.1333   1407.0031    703.0000     49.1162
           31          22      1.0000      0.1400   1407.5431    703.0000     49.1463
           31          23      1.0000      0.1467   1408.1198    703.0000     49.1785
           31          24      1.0000      0.1533   1408.7414    703.0000     49.2132
           31          25      1.0000      0.1600   1409.4179    703.0000     49.2511
           31          26      1.0000      0.1667   1410.1622    703.0000     49.2929
           31          27      1.0000      0.1733   1410.9907    703.0000     49.3394
           31          28      1.0000      0.1800   1411.9251    703.0000     49.3920
           31          29      1.0000      0.1867   1412.9937    703.0000     49.4523
           31          30      1.0000      0.1933   1414.2348    703.0000     49.5225
           31          31      1.0000      0.2000   1415.6997    703.0000     49.6056
