 ====================================================================================
               Transient state solution for a 2D rectangular plate
                    for applications in steel reheating
                 e.g. Reheating furnaces for rolling processing
 ====================================================================================
 Author: Dickson Alves de Souza

 Based on lectures by professor Roberto Parreiras Tavares

 and book Numerical Heat Transfer and Fluid Flow
 by Suhas V. Patankar (1980)

 Federal University of Minas Gerais (UFMG)
 October 26th, 2017
 ====================================================================================
                              Input parameters:

 Lenght in X direction (meters):           1.0000
 Lenght in Y direction (meters):           0.2000
 Nodes in X direction:                         31
 Nodes in Y direction:                         31
 ====================================================================================

                       STAGE                1/  5
                       START Time:         0.0000
                       END Time:        1140.0000
                       Iterations:             1216

 ====================================================================================
 Temperature of fluid at left face (T left):             1223.1500
 Temperature of fluid at right face (T right):           1223.1500
 Temperature of fluid at bottom face (T bottom):         1223.1500
 Temperature of fluid at top face (T top):               1223.1500
 ------------------------------------------------------------------------------------
 Heat transfer coefficient at left face (H left):          50.0000
 Heat transfer coefficient at right face (H right):        50.0000
 Heat transfer coefficient at bottom face (H bottom):       8.0000
 Heat transfer coefficient at top face (H top):           150.0000
 ====================================================================================


 ====================================================================================

                       STAGE                2/  5
                       START Time:      1140.0000
                       END Time:        3060.0000
                       Iterations:             1216

 ====================================================================================
 Temperature of fluid at left face (T left):             1423.1500
 Temperature of fluid at right face (T right):           1423.1500
 Temperature of fluid at bottom face (T bottom):         1423.1500
 Temperature of fluid at top face (T top):               1423.1500
 ------------------------------------------------------------------------------------
 Heat transfer coefficient at left face (H left):          50.0000
 Heat transfer coefficient at right face (H right):        50.0000
 Heat transfer coefficient at bottom face (H bottom):       8.0000
 Heat transfer coefficient at top face (H top):           150.0000
 ====================================================================================


 ====================================================================================

                       STAGE                3/  5
                       START Time:      3060.0000
                       END Time:        4980.0000
                       Iterations:             1216

 ====================================================================================
 Temperature of fluid at left face (T left):             1513.1500
 Temperature of fluid at right face (T right):           1513.1500
 Temperature of fluid at bottom face (T bottom):         1513.1500
 Temperature of fluid at top face (T top):               1513.1500
 ------------------------------------------------------------------------------------
 Heat transfer coefficient at left face (H left):          50.0000
 Heat transfer coefficient at right face (H right):        50.0000
 Heat transfer coefficient at bottom face (H bottom):       8.0000
 Heat transfer coefficient at top face (H top):           150.0000
 ====================================================================================


 ====================================================================================

                       STAGE                4/  5
                       START Time:      4980.0000
                       END Time:        8400.0000
                       Iterations:             1216

 ====================================================================================
 Temperature of fluid at left face (T left):             1503.1500
 Temperature of fluid at right face (T right):           1503.1500
 Temperature of fluid at bottom face (T bottom):         1503.1500
 Temperature of fluid at top face (T top):               1523.1500
 ------------------------------------------------------------------------------------
 Heat transfer coefficient at left face (H left):          50.0000
 Heat transfer coefficient at right face (H right):        50.0000
 Heat transfer coefficient at bottom face (H bottom):       8.0000
 Heat transfer coefficient at top face (H top):           150.0000
 ====================================================================================


 SOLUTION of LINEAR SYSTEM: TDMA (tri-diagonal matrix algorithm)
      ADI approach employed in solution.
 Tolerance:       0.0010

 ====================================================================================
                    Calculation Results
 Current time:    6980.0000000000000       seconds
 Maximum Temperature :    1511.7844614722235
 Minimum Temperature :    1488.0853104935402
 Average(algebraic, non-weigthed) Temperature :    1497.6656927452489
 ====================================================================================
            I           J        X(m)        Y(m)        T(K)  Cp(J/kg.K) K(W/sq-m.K)
 ====================================================================================
            1           1      0.0000      0.0000   1501.5328    703.0000     54.9154
            1           2      0.0000      0.0067   1501.4153    703.0000     54.9075
            1           3      0.0000      0.0133   1501.3149    703.0000     54.9009
            1           4      0.0000      0.0200   1501.2329    703.0000     54.8954
            1           5      0.0000      0.0267   1501.1702    703.0000     54.8912
            1           6      0.0000      0.0333   1501.1281    703.0000     54.8884
            1           7      0.0000      0.0400   1501.1077    703.0000     54.8871
            1           8      0.0000      0.0467   1501.1099    703.0000     54.8872
            1           9      0.0000      0.0533   1501.1359    703.0000     54.8889
            1          10      0.0000      0.0600   1501.1867    703.0000     54.8923
            1          11      0.0000      0.0667   1501.2632    703.0000     54.8974
            1          12      0.0000      0.0733   1501.3663    703.0000     54.9043
            1          13      0.0000      0.0800   1501.4971    703.0000     54.9130
            1          14      0.0000      0.0867   1501.6565    703.0000     54.9236
            1          15      0.0000      0.0933   1501.8455    703.0000     54.9362
            1          16      0.0000      0.1000   1502.0650    703.0000     54.9508
            1          17      0.0000      0.1067   1502.3163    703.0000     54.9676
            1          18      0.0000      0.1133   1502.6004    703.0000     54.9866
            1          19      0.0000      0.1200   1502.9188    703.0000     55.0078
            1          20      0.0000      0.1267   1503.2730    703.0000     55.0315
            1          21      0.0000      0.1333   1503.6649    703.0000     55.0577
            1          22      0.0000      0.1400   1504.0966    703.0000     55.0865
            1          23      0.0000      0.1467   1504.5712    703.0000     55.1183
            1          24      0.0000      0.1533   1505.0920    703.0000     55.1532
            1          25      0.0000      0.1600   1505.6638    703.0000     55.1915
            1          26      0.0000      0.1667   1506.2925    703.0000     55.2337
            1          27      0.0000      0.1733   1506.9862    703.0000     55.2802
            1          28      0.0000      0.1800   1507.7556    703.0000     55.3320
            1          29      0.0000      0.1867   1508.6153    703.0000     55.3898
            1          30      0.0000      0.1933   1509.5851    703.0000     55.4552
            1          31      0.0000      0.2000   1510.6924    703.0000     55.5300
            2           1      0.0333      0.0000   1500.8412    703.0000     54.8693
            2           2      0.0333      0.0067   1500.6732    703.0000     54.8581
            2           3      0.0333      0.0133   1500.5290    703.0000     54.8485
            2           4      0.0333      0.0200   1500.4103    703.0000     54.8407
            2           5      0.0333      0.0267   1500.3186    703.0000     54.8346
            2           6      0.0333      0.0333   1500.2555    703.0000     54.8304
            2           7      0.0333      0.0400   1500.2225    703.0000     54.8282
            2           8      0.0333      0.0467   1500.2210    703.0000     54.8281
            2           9      0.0333      0.0533   1500.2524    703.0000     54.8302
            2          10      0.0333      0.0600   1500.3180    703.0000     54.8345
            2          11      0.0333      0.0667   1500.4192    703.0000     54.8412
            2          12      0.0333      0.0733   1500.5570    703.0000     54.8504
            2          13      0.0333      0.0800   1500.7327    703.0000     54.8621
            2          14      0.0333      0.0867   1500.9474    703.0000     54.8764
            2          15      0.0333      0.0933   1501.2023    703.0000     54.8934
            2          16      0.0333      0.1000   1501.4984    703.0000     54.9131
            2          17      0.0333      0.1067   1501.8367    703.0000     54.9356
            2          18      0.0333      0.1133   1502.2185    703.0000     54.9611
            2          19      0.0333      0.1200   1502.6448    703.0000     54.9895
            2          20      0.0333      0.1267   1503.1168    703.0000     55.0210
            2          21      0.0333      0.1333   1503.6358    703.0000     55.0557
            2          22      0.0333      0.1400   1504.2031    703.0000     55.0937
            2          23      0.0333      0.1467   1504.8201    703.0000     55.1350
            2          24      0.0333      0.1533   1505.4884    703.0000     55.1797
            2          25      0.0333      0.1600   1506.2096    703.0000     55.2281
            2          26      0.0333      0.1667   1506.9855    703.0000     55.2802
            2          27      0.0333      0.1733   1507.8177    703.0000     55.3361
            2          28      0.0333      0.1800   1508.7078    703.0000     55.3961
            2          29      0.0333      0.1867   1509.6571    703.0000     55.4601
            2          30      0.0333      0.1933   1510.6660    703.0000     55.5282
            2          31      0.0333      0.2000   1511.7333    703.0000     55.6003
            3           1      0.0667      0.0000   1500.0901    703.0000     54.8194
            3           2      0.0667      0.0067   1499.8665    703.0000     54.8045
            3           3      0.0667      0.0133   1499.6727    703.0000     54.7916
            3           4      0.0667      0.0200   1499.5105    703.0000     54.7809
            3           5      0.0667      0.0267   1499.3820    703.0000     54.7723
            3           6      0.0667      0.0333   1499.2890    703.0000     54.7661
            3           7      0.0667      0.0400   1499.2334    703.0000     54.7625
            3           8      0.0667      0.0467   1499.2168    703.0000     54.7614
            3           9      0.0667      0.0533   1499.2408    703.0000     54.7629
            3          10      0.0667      0.0600   1499.3068    703.0000     54.7673
            3          11      0.0667      0.0667   1499.4164    703.0000     54.7746
            3          12      0.0667      0.0733   1499.5706    703.0000     54.7848
            3          13      0.0667      0.0800   1499.7707    703.0000     54.7981
            3          14      0.0667      0.0867   1500.0176    703.0000     54.8145
            3          15      0.0667      0.0933   1500.3124    703.0000     54.8341
            3          16      0.0667      0.1000   1500.6558    703.0000     54.8570
            3          17      0.0667      0.1067   1501.0485    703.0000     54.8831
            3          18      0.0667      0.1133   1501.4911    703.0000     54.9126
            3          19      0.0667      0.1200   1501.9840    703.0000     54.9454
            3          20      0.0667      0.1267   1502.5277    703.0000     54.9817
            3          21      0.0667      0.1333   1503.1223    703.0000     55.0214
            3          22      0.0667      0.1400   1503.7678    703.0000     55.0645
            3          23      0.0667      0.1467   1504.4643    703.0000     55.1111
            3          24      0.0667      0.1533   1505.2114    703.0000     55.1612
            3          25      0.0667      0.1600   1506.0088    703.0000     55.2146
            3          26      0.0667      0.1667   1506.8556    703.0000     55.2715
            3          27      0.0667      0.1733   1507.7510    703.0000     55.3317
            3          28      0.0667      0.1800   1508.6937    703.0000     55.3951
            3          29      0.0667      0.1867   1509.6817    703.0000     55.4617
            3          30      0.0667      0.1933   1510.7129    703.0000     55.5313
            3          31      0.0667      0.2000   1511.7845    703.0000     55.6038
            4           1      0.1000      0.0000   1499.2841    703.0000     54.7658
            4           2      0.1000      0.0067   1499.0004    703.0000     54.7470
            4           3      0.1000      0.0133   1498.7515    703.0000     54.7305
            4           4      0.1000      0.0200   1498.5397    703.0000     54.7164
            4           5      0.1000      0.0267   1498.3674    703.0000     54.7050
            4           6      0.1000      0.0333   1498.2367    703.0000     54.6963
            4           7      0.1000      0.0400   1498.1496    703.0000     54.6906
            4           8      0.1000      0.0467   1498.1080    703.0000     54.6878
            4           9      0.1000      0.0533   1498.1137    703.0000     54.6882
            4          10      0.1000      0.0600   1498.1680    703.0000     54.6918
            4          11      0.1000      0.0667   1498.2726    703.0000     54.6987
            4          12      0.1000      0.0733   1498.4286    703.0000     54.7091
            4          13      0.1000      0.0800   1498.6372    703.0000     54.7229
            4          14      0.1000      0.0867   1498.8991    703.0000     54.7403
            4          15      0.1000      0.0933   1499.2151    703.0000     54.7612
            4          16      0.1000      0.1000   1499.5857    703.0000     54.7858
            4          17      0.1000      0.1067   1500.0112    703.0000     54.8141
            4          18      0.1000      0.1133   1500.4919    703.0000     54.8461
            4          19      0.1000      0.1200   1501.0276    703.0000     54.8817
            4          20      0.1000      0.1267   1501.6180    703.0000     54.9210
            4          21      0.1000      0.1333   1502.2626    703.0000     54.9640
            4          22      0.1000      0.1400   1502.9608    703.0000     55.0106
            4          23      0.1000      0.1467   1503.7117    703.0000     55.0608
            4          24      0.1000      0.1533   1504.5140    703.0000     55.1145
            4          25      0.1000      0.1600   1505.3664    703.0000     55.1716
            4          26      0.1000      0.1667   1506.2673    703.0000     55.2320
            4          27      0.1000      0.1733   1507.2146    703.0000     55.2956
            4          28      0.1000      0.1800   1508.2062    703.0000     55.3623
            4          29      0.1000      0.1867   1509.2397    703.0000     55.4319
            4          30      0.1000      0.1933   1510.3123    703.0000     55.5043
            4          31      0.1000      0.2000   1511.4209    703.0000     55.5792
            5           1      0.1333      0.0000   1498.4410    703.0000     54.7099
            5           2      0.1333      0.0067   1498.0939    703.0000     54.6869
            5           3      0.1333      0.0133   1497.7862    703.0000     54.6665
            5           4      0.1333      0.0200   1497.5206    703.0000     54.6489
            5           5      0.1333      0.0267   1497.2996    703.0000     54.6343
            5           6      0.1333      0.0333   1497.1256    703.0000     54.6228
            5           7      0.1333      0.0400   1497.0008    703.0000     54.6145
            5           8      0.1333      0.0467   1496.9273    703.0000     54.6096
            5           9      0.1333      0.0533   1496.9070    703.0000     54.6083
            5          10      0.1333      0.0600   1496.9414    703.0000     54.6106
            5          11      0.1333      0.0667   1497.0322    703.0000     54.6166
            5          12      0.1333      0.0733   1497.1804    703.0000     54.6264
            5          13      0.1333      0.0800   1497.3871    703.0000     54.6401
            5          14      0.1333      0.0867   1497.6532    703.0000     54.6577
            5          15      0.1333      0.0933   1497.9791    703.0000     54.6793
            5          16      0.1333      0.1000   1498.3653    703.0000     54.7049
            5          17      0.1333      0.1067   1498.8117    703.0000     54.7345
            5          18      0.1333      0.1133   1499.3183    703.0000     54.7681
            5          19      0.1333      0.1200   1499.8846    703.0000     54.8057
            5          20      0.1333      0.1267   1500.5099    703.0000     54.8473
            5          21      0.1333      0.1333   1501.1935    703.0000     54.8928
            5          22      0.1333      0.1400   1501.9341    703.0000     54.9421
            5          23      0.1333      0.1467   1502.7304    703.0000     54.9952
            5          24      0.1333      0.1533   1503.5807    703.0000     55.0520
            5          25      0.1333      0.1600   1504.4832    703.0000     55.1124
            5          26      0.1333      0.1667   1505.4356    703.0000     55.1762
            5          27      0.1333      0.1733   1506.4357    703.0000     55.2433
            5          28      0.1333      0.1800   1507.4810    703.0000     55.3135
            5          29      0.1333      0.1867   1508.5685    703.0000     55.3867
            5          30      0.1333      0.1933   1509.6953    703.0000     55.4626
            5          31      0.1333      0.2000   1510.8581    703.0000     55.5412
            6           1      0.1667      0.0000   1497.5851    703.0000     54.6532
            6           2      0.1667      0.0067   1497.1735    703.0000     54.6259
            6           3      0.1667      0.0133   1496.8054    703.0000     54.6016
            6           4      0.1667      0.0200   1496.4838    703.0000     54.5803
            6           5      0.1667      0.0267   1496.2116    703.0000     54.5623
            6           6      0.1667      0.0333   1495.9914    703.0000     54.5478
            6           7      0.1667      0.0400   1495.8256    703.0000     54.5368
            6           8      0.1667      0.0467   1495.7164    703.0000     54.5296
            6           9      0.1667      0.0533   1495.6659    703.0000     54.5263
            6          10      0.1667      0.0600   1495.6757    703.0000     54.5269
            6          11      0.1667      0.0667   1495.7475    703.0000     54.5317
            6          12      0.1667      0.0733   1495.8825    703.0000     54.5406
            6          13      0.1667      0.0800   1496.0817    703.0000     54.5537
            6          14      0.1667      0.0867   1496.3459    703.0000     54.5712
            6          15      0.1667      0.0933   1496.6755    703.0000     54.5930
            6          16      0.1667      0.1000   1497.0708    703.0000     54.6191
            6          17      0.1667      0.1067   1497.5318    703.0000     54.6496
            6          18      0.1667      0.1133   1498.0581    703.0000     54.6845
            6          19      0.1667      0.1200   1498.6490    703.0000     54.7237
            6          20      0.1667      0.1267   1499.3037    703.0000     54.7671
            6          21      0.1667      0.1333   1500.0211    703.0000     54.8148
            6          22      0.1667      0.1400   1500.7997    703.0000     54.8666
            6          23      0.1667      0.1467   1501.6378    703.0000     54.9224
            6          24      0.1667      0.1533   1502.5336    703.0000     54.9821
            6          25      0.1667      0.1600   1503.4847    703.0000     55.0456
            6          26      0.1667      0.1667   1504.4888    703.0000     55.1128
            6          27      0.1667      0.1733   1505.5432    703.0000     55.1834
            6          28      0.1667      0.1800   1506.6452    703.0000     55.2573
            6          29      0.1667      0.1867   1507.7915    703.0000     55.3344
            6          30      0.1667      0.1933   1508.9790    703.0000     55.4143
            6          31      0.1667      0.2000   1510.2042    703.0000     55.4970
            7           1      0.2000      0.0000   1496.7426    703.0000     54.5974
            7           2      0.2000      0.0067   1496.2673    703.0000     54.5660
            7           3      0.2000      0.0133   1495.8394    703.0000     54.5377
            7           4      0.2000      0.0200   1495.4622    703.0000     54.5128
            7           5      0.2000      0.0267   1495.1386    703.0000     54.4915
            7           6      0.2000      0.0333   1494.8717    703.0000     54.4739
            7           7      0.2000      0.0400   1494.6639    703.0000     54.4602
            7           8      0.2000      0.0467   1494.5177    703.0000     54.4506
            7           9      0.2000      0.0533   1494.4354    703.0000     54.4451
            7          10      0.2000      0.0600   1494.4186    703.0000     54.4440
            7          11      0.2000      0.0667   1494.4692    703.0000     54.4474
            7          12      0.2000      0.0733   1494.5883    703.0000     54.4552
            7          13      0.2000      0.0800   1494.7772    703.0000     54.4677
            7          14      0.2000      0.0867   1495.0364    703.0000     54.4848
            7          15      0.2000      0.0933   1495.3666    703.0000     54.5065
            7          16      0.2000      0.1000   1495.7678    703.0000     54.5330
            7          17      0.2000      0.1067   1496.2399    703.0000     54.5642
            7          18      0.2000      0.1133   1496.7824    703.0000     54.6001
            7          19      0.2000      0.1200   1497.3947    703.0000     54.6406
            7          20      0.2000      0.1267   1498.0756    703.0000     54.6857
            7          21      0.2000      0.1333   1498.8238    703.0000     54.7353
            7          22      0.2000      0.1400   1499.6377    703.0000     54.7893
            7          23      0.2000      0.1467   1500.5155    703.0000     54.8476
            7          24      0.2000      0.1533   1501.4548    703.0000     54.9102
            7          25      0.2000      0.1600   1502.4533    703.0000     54.9767
            7          26      0.2000      0.1667   1503.5084    703.0000     55.0472
            7          27      0.2000      0.1733   1504.6170    703.0000     55.1214
            7          28      0.2000      0.1800   1505.7761    703.0000     55.1990
            7          29      0.2000      0.1867   1506.9825    703.0000     55.2800
            7          30      0.2000      0.1933   1508.2324    703.0000     55.3641
            7          31      0.2000      0.2000   1509.5224    703.0000     55.4510
            8           1      0.2333      0.0000   1495.9382    703.0000     54.5443
            8           2      0.2333      0.0067   1495.4020    703.0000     54.5089
            8           3      0.2333      0.0133   1494.9167    703.0000     54.4769
            8           4      0.2333      0.0200   1494.4859    703.0000     54.4485
            8           5      0.2333      0.0267   1494.1127    703.0000     54.4239
            8           6      0.2333      0.0333   1493.8004    703.0000     54.4033
            8           7      0.2333      0.0400   1493.5518    703.0000     54.3870
            8           8      0.2333      0.0467   1493.3694    703.0000     54.3750
            8           9      0.2333      0.0533   1493.2555    703.0000     54.3675
            8          10      0.2333      0.0600   1493.2122    703.0000     54.3646
            8          11      0.2333      0.0667   1493.2412    703.0000     54.3665
            8          12      0.2333      0.0733   1493.3438    703.0000     54.3733
            8          13      0.2333      0.0800   1493.5213    703.0000     54.3850
            8          14      0.2333      0.0867   1493.7743    703.0000     54.4016
            8          15      0.2333      0.0933   1494.1034    703.0000     54.4233
            8          16      0.2333      0.1000   1494.5087    703.0000     54.4500
            8          17      0.2333      0.1067   1494.9899    703.0000     54.4817
            8          18      0.2333      0.1133   1495.5466    703.0000     54.5184
            8          19      0.2333      0.1200   1496.1779    703.0000     54.5601
            8          20      0.2333      0.1267   1496.8826    703.0000     54.6067
            8          21      0.2333      0.1333   1497.6593    703.0000     54.6581
            8          22      0.2333      0.1400   1498.5061    703.0000     54.7142
            8          23      0.2333      0.1467   1499.4210    703.0000     54.7749
            8          24      0.2333      0.1533   1500.4017    703.0000     54.8401
            8          25      0.2333      0.1600   1501.4453    703.0000     54.9095
            8          26      0.2333      0.1667   1502.5492    703.0000     54.9831
            8          27      0.2333      0.1733   1503.7101    703.0000     55.0607
            8          28      0.2333      0.1800   1504.9246    703.0000     55.1419
            8          29      0.2333      0.1867   1506.1893    703.0000     55.2267
            8          30      0.2333      0.1933   1507.5003    703.0000     55.3148
            8          31      0.2333      0.2000   1508.8538    703.0000     55.4059
            9           1      0.2667      0.0000   1495.1926    703.0000     54.4951
            9           2      0.2667      0.0067   1494.5999    703.0000     54.4560
            9           3      0.2667      0.0133   1494.0614    703.0000     54.4205
            9           4      0.2667      0.0200   1493.5806    703.0000     54.3889
            9           5      0.2667      0.0267   1493.1613    703.0000     54.3613
            9           6      0.2667      0.0333   1492.8067    703.0000     54.3380
            9           7      0.2667      0.0400   1492.5197    703.0000     54.3191
            9           8      0.2667      0.0467   1492.3032    703.0000     54.3049
            9           9      0.2667      0.0533   1492.1596    703.0000     54.2955
            9          10      0.2667      0.0600   1492.0910    703.0000     54.2910
            9          11      0.2667      0.0667   1492.0993    703.0000     54.2915
            9          12      0.2667      0.0733   1492.1859    703.0000     54.2972
            9          13      0.2667      0.0800   1492.3521    703.0000     54.3081
            9          14      0.2667      0.0867   1492.5987    703.0000     54.3243
            9          15      0.2667      0.0933   1492.9261    703.0000     54.3458
            9          16      0.2667      0.1000   1493.3344    703.0000     54.3727
            9          17      0.2667      0.1067   1493.8234    703.0000     54.4048
            9          18      0.2667      0.1133   1494.3925    703.0000     54.4423
            9          19      0.2667      0.1200   1495.0409    703.0000     54.4851
            9          20      0.2667      0.1267   1495.7672    703.0000     54.5330
            9          21      0.2667      0.1333   1496.5698    703.0000     54.5860
            9          22      0.2667      0.1400   1497.4468    703.0000     54.6440
            9          23      0.2667      0.1467   1498.3959    703.0000     54.7069
            9          24      0.2667      0.1533   1499.4147    703.0000     54.7745
            9          25      0.2667      0.1600   1500.5002    703.0000     54.8466
            9          26      0.2667      0.1667   1501.6495    703.0000     54.9231
            9          27      0.2667      0.1733   1502.8590    703.0000     55.0038
            9          28      0.2667      0.1800   1504.1253    703.0000     55.0884
            9          29      0.2667      0.1867   1505.4446    703.0000     55.1768
            9          30      0.2667      0.1933   1506.8129    703.0000     55.2686
            9          31      0.2667      0.2000   1508.2259    703.0000     55.3636
           10           1      0.3000      0.0000   1494.5228    703.0000     54.4509
           10           2      0.3000      0.0067   1493.8793    703.0000     54.4085
           10           3      0.3000      0.0133   1493.2927    703.0000     54.3699
           10           4      0.3000      0.0200   1492.7671    703.0000     54.3354
           10           5      0.3000      0.0267   1492.3061    703.0000     54.3051
           10           6      0.3000      0.0333   1491.9132    703.0000     54.2793
           10           7      0.3000      0.0400   1491.5915    703.0000     54.2582
           10           8      0.3000      0.0467   1491.3441    703.0000     54.2420
           10           9      0.3000      0.0533   1491.1735    703.0000     54.2308
           10          10      0.3000      0.0600   1491.0819    703.0000     54.2248
           10          11      0.3000      0.0667   1491.0713    703.0000     54.2241
           10          12      0.3000      0.0733   1491.1433    703.0000     54.2288
           10          13      0.3000      0.0800   1491.2990    703.0000     54.2390
           10          14      0.3000      0.0867   1491.5393    703.0000     54.2548
           10          15      0.3000      0.0933   1491.8648    703.0000     54.2761
           10          16      0.3000      0.1000   1492.2755    703.0000     54.3031
           10          17      0.3000      0.1067   1492.7713    703.0000     54.3357
           10          18      0.3000      0.1133   1493.3513    703.0000     54.3738
           10          19      0.3000      0.1200   1494.0147    703.0000     54.4174
           10          20      0.3000      0.1267   1494.7602    703.0000     54.4665
           10          21      0.3000      0.1333   1495.5859    703.0000     54.5210
           10          22      0.3000      0.1400   1496.4899    703.0000     54.5807
           10          23      0.3000      0.1467   1497.4697    703.0000     54.6455
           10          24      0.3000      0.1533   1498.5227    703.0000     54.7153
           10          25      0.3000      0.1600   1499.6459    703.0000     54.7898
           10          26      0.3000      0.1667   1500.8360    703.0000     54.8690
           10          27      0.3000      0.1733   1502.0894    703.0000     54.9525
           10          28      0.3000      0.1800   1503.4025    703.0000     55.0401
           10          29      0.3000      0.1867   1504.7711    703.0000     55.1317
           10          30      0.3000      0.1933   1506.1911    703.0000     55.2269
           10          31      0.3000      0.2000   1507.6581    703.0000     55.3254
           11           1      0.3333      0.0000   1493.9412    703.0000     54.4126
           11           2      0.3333      0.0067   1493.2535    703.0000     54.3674
           11           3      0.3333      0.0133   1492.6253    703.0000     54.3261
           11           4      0.3333      0.0200   1492.0606    703.0000     54.2890
           11           5      0.3333      0.0267   1491.5633    703.0000     54.2564
           11           6      0.3333      0.0333   1491.1371    703.0000     54.2284
           11           7      0.3333      0.0400   1490.7853    703.0000     54.2054
           11           8      0.3333      0.0467   1490.5109    703.0000     54.1874
           11           9      0.3333      0.0533   1490.3167    703.0000     54.1747
           11          10      0.3333      0.0600   1490.2049    703.0000     54.1674
           11          11      0.3333      0.0667   1490.1778    703.0000     54.1656
           11          12      0.3333      0.0733   1490.2368    703.0000     54.1695
           11          13      0.3333      0.0800   1490.3832    703.0000     54.1791
           11          14      0.3333      0.0867   1490.6181    703.0000     54.1944
           11          15      0.3333      0.0933   1490.9418    703.0000     54.2156
           11          16      0.3333      0.1000   1491.3544    703.0000     54.2427
           11          17      0.3333      0.1067   1491.8558    703.0000     54.2756
           11          18      0.3333      0.1133   1492.4452    703.0000     54.3142
           11          19      0.3333      0.1200   1493.1216    703.0000     54.3587
           11          20      0.3333      0.1267   1493.8835    703.0000     54.4088
           11          21      0.3333      0.1333   1494.7293    703.0000     54.4645
           11          22      0.3333      0.1400   1495.6566    703.0000     54.5257
           11          23      0.3333      0.1467   1496.6631    703.0000     54.5922
           11          24      0.3333      0.1533   1497.7458    703.0000     54.6638
           11          25      0.3333      0.1600   1498.9017    703.0000     54.7404
           11          26      0.3333      0.1667   1500.1274    703.0000     54.8218
           11          27      0.3333      0.1733   1501.4190    703.0000     54.9078
           11          28      0.3333      0.1800   1502.7727    703.0000     54.9981
           11          29      0.3333      0.1867   1504.1843    703.0000     55.0924
           11          30      0.3333      0.1933   1505.6494    703.0000     55.1905
           11          31      0.3333      0.2000   1507.1633    703.0000     55.2921
           12           1      0.3667      0.0000   1493.4568    703.0000     54.3807
           12           2      0.3667      0.0067   1492.7324    703.0000     54.3331
           12           3      0.3667      0.0133   1492.0694    703.0000     54.2896
           12           4      0.3667      0.0200   1491.4721    703.0000     54.2504
           12           5      0.3667      0.0267   1490.9446    703.0000     54.2158
           12           6      0.3667      0.0333   1490.4906    703.0000     54.1861
           12           7      0.3667      0.0400   1490.1135    703.0000     54.1614
           12           8      0.3667      0.0467   1489.8166    703.0000     54.1420
           12           9      0.3667      0.0533   1489.6027    703.0000     54.1280
           12          10      0.3667      0.0600   1489.4741    703.0000     54.1196
           12          11      0.3667      0.0667   1489.4331    703.0000     54.1169
           12          12      0.3667      0.0733   1489.4812    703.0000     54.1201
           12          13      0.3667      0.0800   1489.6199    703.0000     54.1291
           12          14      0.3667      0.0867   1489.8500    703.0000     54.1442
           12          15      0.3667      0.0933   1490.1721    703.0000     54.1652
           12          16      0.3667      0.1000   1490.5864    703.0000     54.1924
           12          17      0.3667      0.1067   1491.0924    703.0000     54.2255
           12          18      0.3667      0.1133   1491.6895    703.0000     54.2646
           12          19      0.3667      0.1200   1492.3766    703.0000     54.3097
           12          20      0.3667      0.1267   1493.1523    703.0000     54.3607
           12          21      0.3667      0.1333   1494.0147    703.0000     54.4174
           12          22      0.3667      0.1400   1494.9615    703.0000     54.4798
           12          23      0.3667      0.1467   1495.9901    703.0000     54.5477
           12          24      0.3667      0.1533   1497.0977    703.0000     54.6209
           12          25      0.3667      0.1600   1498.2809    703.0000     54.6993
           12          26      0.3667      0.1667   1499.5361    703.0000     54.7826
           12          27      0.3667      0.1733   1500.8597    703.0000     54.8706
           12          28      0.3667      0.1800   1502.2473    703.0000     54.9630
           12          29      0.3667      0.1867   1503.6948    703.0000     55.0597
           12          30      0.3667      0.1933   1505.1974    703.0000     55.1602
           12          31      0.3667      0.2000   1506.7506    703.0000     55.2644
           13           1      0.4000      0.0000   1493.0756    703.0000     54.3557
           13           2      0.4000      0.0067   1492.3222    703.0000     54.3062
           13           3      0.4000      0.0133   1491.6319    703.0000     54.2609
           13           4      0.4000      0.0200   1491.0089    703.0000     54.2200
           13           5      0.4000      0.0267   1490.4576    703.0000     54.1839
           13           6      0.4000      0.0333   1489.9817    703.0000     54.1528
           13           7      0.4000      0.0400   1489.5848    703.0000     54.1268
           13           8      0.4000      0.0467   1489.2701    703.0000     54.1063
           13           9      0.4000      0.0533   1489.0406    703.0000     54.0913
           13          10      0.4000      0.0600   1488.8987    703.0000     54.0820
           13          11      0.4000      0.0667   1488.8467    703.0000     54.0786
           13          12      0.4000      0.0733   1488.8863    703.0000     54.0812
           13          13      0.4000      0.0800   1489.0188    703.0000     54.0899
           13          14      0.4000      0.0867   1489.2452    703.0000     54.1046
           13          15      0.4000      0.0933   1489.5661    703.0000     54.1256
           13          16      0.4000      0.1000   1489.9815    703.0000     54.1528
           13          17      0.4000      0.1067   1490.4911    703.0000     54.1861
           13          18      0.4000      0.1133   1491.0943    703.0000     54.2256
           13          19      0.4000      0.1200   1491.7899    703.0000     54.2712
           13          20      0.4000      0.1267   1492.5764    703.0000     54.3229
           13          21      0.4000      0.1333   1493.4519    703.0000     54.3804
           13          22      0.4000      0.1400   1494.4140    703.0000     54.4437
           13          23      0.4000      0.1467   1495.4601    703.0000     54.5127
           13          24      0.4000      0.1533   1496.5871    703.0000     54.5871
           13          25      0.4000      0.1600   1497.7918    703.0000     54.6669
           13          26      0.4000      0.1667   1499.0704    703.0000     54.7516
           13          27      0.4000      0.1733   1500.4190    703.0000     54.8412
           13          28      0.4000      0.1800   1501.8334    703.0000     54.9354
           13          29      0.4000      0.1867   1503.3091    703.0000     55.0339
           13          30      0.4000      0.1933   1504.8414    703.0000     55.1364
           13          31      0.4000      0.2000   1506.4255    703.0000     55.2426
           14           1      0.4333      0.0000   1492.8013    703.0000     54.3376
           14           2      0.4333      0.0067   1492.0271    703.0000     54.2868
           14           3      0.4333      0.0133   1491.3170    703.0000     54.2402
           14           4      0.4333      0.0200   1490.6756    703.0000     54.1982
           14           5      0.4333      0.0267   1490.1071    703.0000     54.1610
           14           6      0.4333      0.0333   1489.6154    703.0000     54.1288
           14           7      0.4333      0.0400   1489.2042    703.0000     54.1020
           14           8      0.4333      0.0467   1488.8768    703.0000     54.0806
           14           9      0.4333      0.0533   1488.6360    703.0000     54.0649
           14          10      0.4333      0.0600   1488.4846    703.0000     54.0550
           14          11      0.4333      0.0667   1488.4247    703.0000     54.0511
           14          12      0.4333      0.0733   1488.4581    703.0000     54.0533
           14          13      0.4333      0.0800   1488.5861    703.0000     54.0616
           14          14      0.4333      0.0867   1488.8099    703.0000     54.0762
           14          15      0.4333      0.0933   1489.1298    703.0000     54.0971
           14          16      0.4333      0.1000   1489.5460    703.0000     54.1243
           14          17      0.4333      0.1067   1490.0583    703.0000     54.1578
           14          18      0.4333      0.1133   1490.6658    703.0000     54.1976
           14          19      0.4333      0.1200   1491.3675    703.0000     54.2435
           14          20      0.4333      0.1267   1492.1618    703.0000     54.2956
           14          21      0.4333      0.1333   1493.0466    703.0000     54.3538
           14          22      0.4333      0.1400   1494.0198    703.0000     54.4178
           14          23      0.4333      0.1467   1495.0784    703.0000     54.4875
           14          24      0.4333      0.1533   1496.2195    703.0000     54.5629
           14          25      0.4333      0.1600   1497.4397    703.0000     54.6435
           14          26      0.4333      0.1667   1498.7351    703.0000     54.7294
           14          27      0.4333      0.1733   1500.1018    703.0000     54.8201
           14          28      0.4333      0.1800   1501.5354    703.0000     54.9155
           14          29      0.4333      0.1867   1503.0315    703.0000     55.0153
           14          30      0.4333      0.1933   1504.5851    703.0000     55.1192
           14          31      0.4333      0.2000   1506.1914    703.0000     55.2269
           15           1      0.4667      0.0000   1492.6360    703.0000     54.3268
           15           2      0.4667      0.0067   1491.8492    703.0000     54.2751
           15           3      0.4667      0.0133   1491.1273    703.0000     54.2278
           15           4      0.4667      0.0200   1490.4748    703.0000     54.1851
           15           5      0.4667      0.0267   1489.8959    703.0000     54.1472
           15           6      0.4667      0.0333   1489.3947    703.0000     54.1144
           15           7      0.4667      0.0400   1488.9749    703.0000     54.0870
           15           8      0.4667      0.0467   1488.6397    703.0000     54.0651
           15           9      0.4667      0.0533   1488.3922    703.0000     54.0490
           15          10      0.4667      0.0600   1488.2350    703.0000     54.0387
           15          11      0.4667      0.0667   1488.1703    703.0000     54.0345
           15          12      0.4667      0.0733   1488.2000    703.0000     54.0364
           15          13      0.4667      0.0800   1488.3254    703.0000     54.0446
           15          14      0.4667      0.0867   1488.5474    703.0000     54.0591
           15          15      0.4667      0.0933   1488.8668    703.0000     54.0799
           15          16      0.4667      0.1000   1489.2836    703.0000     54.1072
           15          17      0.4667      0.1067   1489.7974    703.0000     54.1407
           15          18      0.4667      0.1133   1490.4075    703.0000     54.1807
           15          19      0.4667      0.1200   1491.1129    703.0000     54.2268
           15          20      0.4667      0.1267   1491.9118    703.0000     54.2792
           15          21      0.4667      0.1333   1492.8024    703.0000     54.3377
           15          22      0.4667      0.1400   1493.7821    703.0000     54.4021
           15          23      0.4667      0.1467   1494.8484    703.0000     54.4724
           15          24      0.4667      0.1533   1495.9980    703.0000     54.5482
           15          25      0.4667      0.1600   1497.2274    703.0000     54.6295
           15          26      0.4667      0.1667   1498.5330    703.0000     54.7160
           15          27      0.4667      0.1733   1499.9106    703.0000     54.8074
           15          28      0.4667      0.1800   1501.3558    703.0000     54.9036
           15          29      0.4667      0.1867   1502.8641    703.0000     55.0042
           15          30      0.4667      0.1933   1504.4306    703.0000     55.1089
           15          31      0.4667      0.2000   1506.0503    703.0000     55.2174
           16           1      0.5000      0.0000   1492.5807    703.0000     54.3231
           16           2      0.5000      0.0067   1491.7898    703.0000     54.2712
           16           3      0.5000      0.0133   1491.0639    703.0000     54.2236
           16           4      0.5000      0.0200   1490.4076    703.0000     54.1807
           16           5      0.5000      0.0267   1489.8253    703.0000     54.1426
           16           6      0.5000      0.0333   1489.3209    703.0000     54.1096
           16           7      0.5000      0.0400   1488.8982    703.0000     54.0820
           16           8      0.5000      0.0467   1488.5605    703.0000     54.0599
           16           9      0.5000      0.0533   1488.3107    703.0000     54.0436
           16          10      0.5000      0.0600   1488.1516    703.0000     54.0333
           16          11      0.5000      0.0667   1488.0853    703.0000     54.0289
           16          12      0.5000      0.0733   1488.1137    703.0000     54.0308
           16          13      0.5000      0.0800   1488.2382    703.0000     54.0389
           16          14      0.5000      0.0867   1488.4597    703.0000     54.0534
           16          15      0.5000      0.0933   1488.7789    703.0000     54.0742
           16          16      0.5000      0.1000   1489.1958    703.0000     54.1014
           16          17      0.5000      0.1067   1489.7102    703.0000     54.1350
           16          18      0.5000      0.1133   1490.3212    703.0000     54.1750
           16          19      0.5000      0.1200   1491.0278    703.0000     54.2213
           16          20      0.5000      0.1267   1491.8283    703.0000     54.2737
           16          21      0.5000      0.1333   1492.7207    703.0000     54.3323
           16          22      0.5000      0.1400   1493.7027    703.0000     54.3969
           16          23      0.5000      0.1467   1494.7715    703.0000     54.4673
           16          24      0.5000      0.1533   1495.9239    703.0000     54.5433
           16          25      0.5000      0.1600   1497.1565    703.0000     54.6248
           16          26      0.5000      0.1667   1498.4654    703.0000     54.7115
           16          27      0.5000      0.1733   1499.8466    703.0000     54.8032
           16          28      0.5000      0.1800   1501.2958    703.0000     54.8996
           16          29      0.5000      0.1867   1502.8082    703.0000     55.0004
           16          30      0.5000      0.1933   1504.3790    703.0000     55.1054
           16          31      0.5000      0.2000   1506.0032    703.0000     55.2142
           17           1      0.5333      0.0000   1492.6358    703.0000     54.3268
           17           2      0.5333      0.0067   1491.8491    703.0000     54.2751
           17           3      0.5333      0.0133   1491.1272    703.0000     54.2278
           17           4      0.5333      0.0200   1490.4746    703.0000     54.1850
           17           5      0.5333      0.0267   1489.8957    703.0000     54.1472
           17           6      0.5333      0.0333   1489.3945    703.0000     54.1144
           17           7      0.5333      0.0400   1488.9747    703.0000     54.0870
           17           8      0.5333      0.0467   1488.6395    703.0000     54.0651
           17           9      0.5333      0.0533   1488.3920    703.0000     54.0489
           17          10      0.5333      0.0600   1488.2348    703.0000     54.0387
           17          11      0.5333      0.0667   1488.1701    703.0000     54.0345
           17          12      0.5333      0.0733   1488.1998    703.0000     54.0364
           17          13      0.5333      0.0800   1488.3251    703.0000     54.0446
           17          14      0.5333      0.0867   1488.5472    703.0000     54.0591
           17          15      0.5333      0.0933   1488.8666    703.0000     54.0799
           17          16      0.5333      0.1000   1489.2833    703.0000     54.1071
           17          17      0.5333      0.1067   1489.7972    703.0000     54.1407
           17          18      0.5333      0.1133   1490.4073    703.0000     54.1806
           17          19      0.5333      0.1200   1491.1127    703.0000     54.2268
           17          20      0.5333      0.1267   1491.9116    703.0000     54.2792
           17          21      0.5333      0.1333   1492.8022    703.0000     54.3377
           17          22      0.5333      0.1400   1493.7819    703.0000     54.4021
           17          23      0.5333      0.1467   1494.8482    703.0000     54.4723
           17          24      0.5333      0.1533   1495.9978    703.0000     54.5482
           17          25      0.5333      0.1600   1497.2272    703.0000     54.6295
           17          26      0.5333      0.1667   1498.5328    703.0000     54.7160
           17          27      0.5333      0.1733   1499.9104    703.0000     54.8074
           17          28      0.5333      0.1800   1501.3556    703.0000     54.9036
           17          29      0.5333      0.1867   1502.8640    703.0000     55.0042
           17          30      0.5333      0.1933   1504.4305    703.0000     55.1089
           17          31      0.5333      0.2000   1506.0502    703.0000     55.2174
           18           1      0.5667      0.0000   1492.8010    703.0000     54.3376
           18           2      0.5667      0.0067   1492.0268    703.0000     54.2868
           18           3      0.5667      0.0133   1491.3167    703.0000     54.2402
           18           4      0.5667      0.0200   1490.6753    703.0000     54.1982
           18           5      0.5667      0.0267   1490.1067    703.0000     54.1610
           18           6      0.5667      0.0333   1489.6150    703.0000     54.1288
           18           7      0.5667      0.0400   1489.2038    703.0000     54.1019
           18           8      0.5667      0.0467   1488.8763    703.0000     54.0806
           18           9      0.5667      0.0533   1488.6356    703.0000     54.0648
           18          10      0.5667      0.0600   1488.4842    703.0000     54.0550
           18          11      0.5667      0.0667   1488.4242    703.0000     54.0510
           18          12      0.5667      0.0733   1488.4576    703.0000     54.0532
           18          13      0.5667      0.0800   1488.5857    703.0000     54.0616
           18          14      0.5667      0.0867   1488.8094    703.0000     54.0762
           18          15      0.5667      0.0933   1489.1293    703.0000     54.0971
           18          16      0.5667      0.1000   1489.5456    703.0000     54.1243
           18          17      0.5667      0.1067   1490.0578    703.0000     54.1578
           18          18      0.5667      0.1133   1490.6654    703.0000     54.1975
           18          19      0.5667      0.1200   1491.3671    703.0000     54.2435
           18          20      0.5667      0.1267   1492.1613    703.0000     54.2956
           18          21      0.5667      0.1333   1493.0462    703.0000     54.3537
           18          22      0.5667      0.1400   1494.0193    703.0000     54.4177
           18          23      0.5667      0.1467   1495.0780    703.0000     54.4875
           18          24      0.5667      0.1533   1496.2191    703.0000     54.5628
           18          25      0.5667      0.1600   1497.4393    703.0000     54.6435
           18          26      0.5667      0.1667   1498.7347    703.0000     54.7294
           18          27      0.5667      0.1733   1500.1014    703.0000     54.8201
           18          28      0.5667      0.1800   1501.5351    703.0000     54.9155
           18          29      0.5667      0.1867   1503.0312    703.0000     55.0153
           18          30      0.5667      0.1933   1504.5848    703.0000     55.1192
           18          31      0.5667      0.2000   1506.1912    703.0000     55.2269
           19           1      0.6000      0.0000   1493.0751    703.0000     54.3556
           19           2      0.6000      0.0067   1492.3217    703.0000     54.3061
           19           3      0.6000      0.0133   1491.6313    703.0000     54.2608
           19           4      0.6000      0.0200   1491.0084    703.0000     54.2200
           19           5      0.6000      0.0267   1490.4570    703.0000     54.1839
           19           6      0.6000      0.0333   1489.9810    703.0000     54.1527
           19           7      0.6000      0.0400   1489.5841    703.0000     54.1268
           19           8      0.6000      0.0467   1489.2694    703.0000     54.1062
           19           9      0.6000      0.0533   1489.0399    703.0000     54.0912
           19          10      0.6000      0.0600   1488.8980    703.0000     54.0820
           19          11      0.6000      0.0667   1488.8460    703.0000     54.0786
           19          12      0.6000      0.0733   1488.8856    703.0000     54.0812
           19          13      0.6000      0.0800   1489.0181    703.0000     54.0898
           19          14      0.6000      0.0867   1489.2445    703.0000     54.1046
           19          15      0.6000      0.0933   1489.5653    703.0000     54.1256
           19          16      0.6000      0.1000   1489.9807    703.0000     54.1527
           19          17      0.6000      0.1067   1490.4904    703.0000     54.1861
           19          18      0.6000      0.1133   1491.0936    703.0000     54.2256
           19          19      0.6000      0.1200   1491.7892    703.0000     54.2712
           19          20      0.6000      0.1267   1492.5757    703.0000     54.3228
           19          21      0.6000      0.1333   1493.4512    703.0000     54.3804
           19          22      0.6000      0.1400   1494.4133    703.0000     54.4437
           19          23      0.6000      0.1467   1495.4594    703.0000     54.5127
           19          24      0.6000      0.1533   1496.5865    703.0000     54.5871
           19          25      0.6000      0.1600   1497.7912    703.0000     54.6668
           19          26      0.6000      0.1667   1499.0698    703.0000     54.7516
           19          27      0.6000      0.1733   1500.4185    703.0000     54.8412
           19          28      0.6000      0.1800   1501.8329    703.0000     54.9354
           19          29      0.6000      0.1867   1503.3086    703.0000     55.0339
           19          30      0.6000      0.1933   1504.8410    703.0000     55.1363
           19          31      0.6000      0.2000   1506.4251    703.0000     55.2426
           20           1      0.6333      0.0000   1493.4561    703.0000     54.3807
           20           2      0.6333      0.0067   1492.7317    703.0000     54.3331
           20           3      0.6333      0.0133   1492.0686    703.0000     54.2895
           20           4      0.6333      0.0200   1491.4713    703.0000     54.2503
           20           5      0.6333      0.0267   1490.9437    703.0000     54.2158
           20           6      0.6333      0.0333   1490.4897    703.0000     54.1860
           20           7      0.6333      0.0400   1490.1126    703.0000     54.1613
           20           8      0.6333      0.0467   1489.8157    703.0000     54.1419
           20           9      0.6333      0.0533   1489.6017    703.0000     54.1279
           20          10      0.6333      0.0600   1489.4731    703.0000     54.1195
           20          11      0.6333      0.0667   1489.4320    703.0000     54.1169
           20          12      0.6333      0.0733   1489.4802    703.0000     54.1200
           20          13      0.6333      0.0800   1489.6188    703.0000     54.1291
           20          14      0.6333      0.0867   1489.8490    703.0000     54.1441
           20          15      0.6333      0.0933   1490.1711    703.0000     54.1652
           20          16      0.6333      0.1000   1490.5853    703.0000     54.1923
           20          17      0.6333      0.1067   1491.0913    703.0000     54.2254
           20          18      0.6333      0.1133   1491.6884    703.0000     54.2646
           20          19      0.6333      0.1200   1492.3756    703.0000     54.3097
           20          20      0.6333      0.1267   1493.1513    703.0000     54.3606
           20          21      0.6333      0.1333   1494.0137    703.0000     54.4174
           20          22      0.6333      0.1400   1494.9605    703.0000     54.4798
           20          23      0.6333      0.1467   1495.9892    703.0000     54.5476
           20          24      0.6333      0.1533   1497.0968    703.0000     54.6209
           20          25      0.6333      0.1600   1498.2800    703.0000     54.6992
           20          26      0.6333      0.1667   1499.5353    703.0000     54.7825
           20          27      0.6333      0.1733   1500.8589    703.0000     54.8705
           20          28      0.6333      0.1800   1502.2466    703.0000     54.9630
           20          29      0.6333      0.1867   1503.6941    703.0000     55.0596
           20          30      0.6333      0.1933   1505.1968    703.0000     55.1602
           20          31      0.6333      0.2000   1506.7500    703.0000     55.2644
           21           1      0.6667      0.0000   1493.9402    703.0000     54.4125
           21           2      0.6667      0.0067   1493.2525    703.0000     54.3673
           21           3      0.6667      0.0133   1492.6242    703.0000     54.3260
           21           4      0.6667      0.0200   1492.0595    703.0000     54.2889
           21           5      0.6667      0.0267   1491.5621    703.0000     54.2563
           21           6      0.6667      0.0333   1491.1358    703.0000     54.2283
           21           7      0.6667      0.0400   1490.7840    703.0000     54.2053
           21           8      0.6667      0.0467   1490.5096    703.0000     54.1873
           21           9      0.6667      0.0533   1490.3153    703.0000     54.1746
           21          10      0.6667      0.0600   1490.2036    703.0000     54.1673
           21          11      0.6667      0.0667   1490.1763    703.0000     54.1655
           21          12      0.6667      0.0733   1490.2353    703.0000     54.1694
           21          13      0.6667      0.0800   1490.3818    703.0000     54.1790
           21          14      0.6667      0.0867   1490.6166    703.0000     54.1943
           21          15      0.6667      0.0933   1490.9403    703.0000     54.2155
           21          16      0.6667      0.1000   1491.3530    703.0000     54.2426
           21          17      0.6667      0.1067   1491.8543    703.0000     54.2755
           21          18      0.6667      0.1133   1492.4437    703.0000     54.3141
           21          19      0.6667      0.1200   1493.1202    703.0000     54.3586
           21          20      0.6667      0.1267   1493.8821    703.0000     54.4087
           21          21      0.6667      0.1333   1494.7279    703.0000     54.4644
           21          22      0.6667      0.1400   1495.6553    703.0000     54.5256
           21          23      0.6667      0.1467   1496.6618    703.0000     54.5921
           21          24      0.6667      0.1533   1497.7446    703.0000     54.6637
           21          25      0.6667      0.1600   1498.9006    703.0000     54.7404
           21          26      0.6667      0.1667   1500.1262    703.0000     54.8218
           21          27      0.6667      0.1733   1501.4180    703.0000     54.9077
           21          28      0.6667      0.1800   1502.7717    703.0000     54.9980
           21          29      0.6667      0.1867   1504.1834    703.0000     55.0923
           21          30      0.6667      0.1933   1505.6485    703.0000     55.1905
           21          31      0.6667      0.2000   1507.1626    703.0000     55.2921
           22           1      0.7000      0.0000   1494.5215    703.0000     54.4508
           22           2      0.7000      0.0067   1493.8779    703.0000     54.4084
           22           3      0.7000      0.0133   1493.2913    703.0000     54.3698
           22           4      0.7000      0.0200   1492.7656    703.0000     54.3353
           22           5      0.7000      0.0267   1492.3045    703.0000     54.3050
           22           6      0.7000      0.0333   1491.9115    703.0000     54.2792
           22           7      0.7000      0.0400   1491.5898    703.0000     54.2581
           22           8      0.7000      0.0467   1491.3424    703.0000     54.2419
           22           9      0.7000      0.0533   1491.1717    703.0000     54.2307
           22          10      0.7000      0.0600   1491.0801    703.0000     54.2247
           22          11      0.7000      0.0667   1491.0694    703.0000     54.2240
           22          12      0.7000      0.0733   1491.1413    703.0000     54.2287
           22          13      0.7000      0.0800   1491.2970    703.0000     54.2389
           22          14      0.7000      0.0867   1491.5374    703.0000     54.2547
           22          15      0.7000      0.0933   1491.8629    703.0000     54.2760
           22          16      0.7000      0.1000   1492.2736    703.0000     54.3030
           22          17      0.7000      0.1067   1492.7693    703.0000     54.3355
           22          18      0.7000      0.1133   1493.3494    703.0000     54.3737
           22          19      0.7000      0.1200   1494.0128    703.0000     54.4173
           22          20      0.7000      0.1267   1494.7583    703.0000     54.4664
           22          21      0.7000      0.1333   1495.5841    703.0000     54.5209
           22          22      0.7000      0.1400   1496.4881    703.0000     54.5806
           22          23      0.7000      0.1467   1497.4680    703.0000     54.6454
           22          24      0.7000      0.1533   1498.5210    703.0000     54.7152
           22          25      0.7000      0.1600   1499.6443    703.0000     54.7897
           22          26      0.7000      0.1667   1500.8345    703.0000     54.8689
           22          27      0.7000      0.1733   1502.0880    703.0000     54.9524
           22          28      0.7000      0.1800   1503.4011    703.0000     55.0400
           22          29      0.7000      0.1867   1504.7698    703.0000     55.1316
           22          30      0.7000      0.1933   1506.1899    703.0000     55.2268
           22          31      0.7000      0.2000   1507.6570    703.0000     55.3253
           23           1      0.7333      0.0000   1495.1910    703.0000     54.4950
           23           2      0.7333      0.0067   1494.5982    703.0000     54.4559
           23           3      0.7333      0.0133   1494.0595    703.0000     54.4204
           23           4      0.7333      0.0200   1493.5787    703.0000     54.3887
           23           5      0.7333      0.0267   1493.1592    703.0000     54.3612
           23           6      0.7333      0.0333   1492.8045    703.0000     54.3378
           23           7      0.7333      0.0400   1492.5174    703.0000     54.3190
           23           8      0.7333      0.0467   1492.3009    703.0000     54.3048
           23           9      0.7333      0.0533   1492.1572    703.0000     54.2953
           23          10      0.7333      0.0600   1492.0885    703.0000     54.2908
           23          11      0.7333      0.0667   1492.0968    703.0000     54.2914
           23          12      0.7333      0.0733   1492.1834    703.0000     54.2971
           23          13      0.7333      0.0800   1492.3496    703.0000     54.3080
           23          14      0.7333      0.0867   1492.5961    703.0000     54.3242
           23          15      0.7333      0.0933   1492.9235    703.0000     54.3457
           23          16      0.7333      0.1000   1493.3318    703.0000     54.3725
           23          17      0.7333      0.1067   1493.8208    703.0000     54.4047
           23          18      0.7333      0.1133   1494.3900    703.0000     54.4422
           23          19      0.7333      0.1200   1495.0384    703.0000     54.4849
           23          20      0.7333      0.1267   1495.7647    703.0000     54.5328
           23          21      0.7333      0.1333   1496.5674    703.0000     54.5858
           23          22      0.7333      0.1400   1497.4444    703.0000     54.6439
           23          23      0.7333      0.1467   1498.3937    703.0000     54.7067
           23          24      0.7333      0.1533   1499.4125    703.0000     54.7743
           23          25      0.7333      0.1600   1500.4981    703.0000     54.8465
           23          26      0.7333      0.1667   1501.6475    703.0000     54.9230
           23          27      0.7333      0.1733   1502.8571    703.0000     55.0037
           23          28      0.7333      0.1800   1504.1236    703.0000     55.0883
           23          29      0.7333      0.1867   1505.4430    703.0000     55.1767
           23          30      0.7333      0.1933   1506.8113    703.0000     55.2685
           23          31      0.7333      0.2000   1508.2245    703.0000     55.3635
           24           1      0.7667      0.0000   1495.9361    703.0000     54.5441
           24           2      0.7667      0.0067   1495.3997    703.0000     54.5087
           24           3      0.7667      0.0133   1494.9143    703.0000     54.4767
           24           4      0.7667      0.0200   1494.4833    703.0000     54.4483
           24           5      0.7667      0.0267   1494.1100    703.0000     54.4237
           24           6      0.7667      0.0333   1493.7976    703.0000     54.4032
           24           7      0.7667      0.0400   1493.5489    703.0000     54.3868
           24           8      0.7667      0.0467   1493.3663    703.0000     54.3748
           24           9      0.7667      0.0533   1493.2524    703.0000     54.3673
           24          10      0.7667      0.0600   1493.2090    703.0000     54.3644
           24          11      0.7667      0.0667   1493.2379    703.0000     54.3663
           24          12      0.7667      0.0733   1493.3405    703.0000     54.3731
           24          13      0.7667      0.0800   1493.5179    703.0000     54.3847
           24          14      0.7667      0.0867   1493.7709    703.0000     54.4014
           24          15      0.7667      0.0933   1494.1000    703.0000     54.4231
           24          16      0.7667      0.1000   1494.5053    703.0000     54.4498
           24          17      0.7667      0.1067   1494.9865    703.0000     54.4815
           24          18      0.7667      0.1133   1495.5433    703.0000     54.5182
           24          19      0.7667      0.1200   1496.1746    703.0000     54.5599
           24          20      0.7667      0.1267   1496.8794    703.0000     54.6065
           24          21      0.7667      0.1333   1497.6561    703.0000     54.6579
           24          22      0.7667      0.1400   1498.5031    703.0000     54.7140
           24          23      0.7667      0.1467   1499.4181    703.0000     54.7747
           24          24      0.7667      0.1533   1500.3988    703.0000     54.8399
           24          25      0.7667      0.1600   1501.4426    703.0000     54.9094
           24          26      0.7667      0.1667   1502.5466    703.0000     54.9830
           24          27      0.7667      0.1733   1503.7076    703.0000     55.0605
           24          28      0.7667      0.1800   1504.9223    703.0000     55.1418
           24          29      0.7667      0.1867   1506.1871    703.0000     55.2266
           24          30      0.7667      0.1933   1507.4983    703.0000     55.3147
           24          31      0.7667      0.2000   1508.8519    703.0000     55.4058
           25           1      0.8000      0.0000   1496.7399    703.0000     54.5972
           25           2      0.8000      0.0067   1496.2644    703.0000     54.5658
           25           3      0.8000      0.0133   1495.8363    703.0000     54.5375
           25           4      0.8000      0.0200   1495.4588    703.0000     54.5126
           25           5      0.8000      0.0267   1495.1351    703.0000     54.4913
           25           6      0.8000      0.0333   1494.8680    703.0000     54.4737
           25           7      0.8000      0.0400   1494.6601    703.0000     54.4600
           25           8      0.8000      0.0467   1494.5138    703.0000     54.4503
           25           9      0.8000      0.0533   1494.4313    703.0000     54.4449
           25          10      0.8000      0.0600   1494.4145    703.0000     54.4438
           25          11      0.8000      0.0667   1494.4649    703.0000     54.4471
           25          12      0.8000      0.0733   1494.5840    703.0000     54.4549
           25          13      0.8000      0.0800   1494.7728    703.0000     54.4674
           25          14      0.8000      0.0867   1495.0321    703.0000     54.4845
           25          15      0.8000      0.0933   1495.3622    703.0000     54.5062
           25          16      0.8000      0.1000   1495.7634    703.0000     54.5327
           25          17      0.8000      0.1067   1496.2355    703.0000     54.5639
           25          18      0.8000      0.1133   1496.7781    703.0000     54.5998
           25          19      0.8000      0.1200   1497.3904    703.0000     54.6403
           25          20      0.8000      0.1267   1498.0714    703.0000     54.6854
           25          21      0.8000      0.1333   1498.8197    703.0000     54.7350
           25          22      0.8000      0.1400   1499.6338    703.0000     54.7890
           25          23      0.8000      0.1467   1500.5116    703.0000     54.8474
           25          24      0.8000      0.1533   1501.4511    703.0000     54.9099
           25          25      0.8000      0.1600   1502.4498    703.0000     54.9765
           25          26      0.8000      0.1667   1503.5050    703.0000     55.0470
           25          27      0.8000      0.1733   1504.6138    703.0000     55.1211
           25          28      0.8000      0.1800   1505.7731    703.0000     55.1988
           25          29      0.8000      0.1867   1506.9797    703.0000     55.2798
           25          30      0.8000      0.1933   1508.2298    703.0000     55.3639
           25          31      0.8000      0.2000   1509.5201    703.0000     55.4508
           26           1      0.8333      0.0000   1497.5815    703.0000     54.6529
           26           2      0.8333      0.0067   1497.1697    703.0000     54.6257
           26           3      0.8333      0.0133   1496.8013    703.0000     54.6013
           26           4      0.8333      0.0200   1496.4796    703.0000     54.5800
           26           5      0.8333      0.0267   1496.2072    703.0000     54.5620
           26           6      0.8333      0.0333   1495.9867    703.0000     54.5475
           26           7      0.8333      0.0400   1495.8207    703.0000     54.5365
           26           8      0.8333      0.0467   1495.7114    703.0000     54.5293
           26           9      0.8333      0.0533   1495.6607    703.0000     54.5259
           26          10      0.8333      0.0600   1495.6704    703.0000     54.5266
           26          11      0.8333      0.0667   1495.7421    703.0000     54.5313
           26          12      0.8333      0.0733   1495.8770    703.0000     54.5402
           26          13      0.8333      0.0800   1496.0761    703.0000     54.5534
           26          14      0.8333      0.0867   1496.3403    703.0000     54.5708
           26          15      0.8333      0.0933   1496.6699    703.0000     54.5926
           26          16      0.8333      0.1000   1497.0653    703.0000     54.6188
           26          17      0.8333      0.1067   1497.5263    703.0000     54.6493
           26          18      0.8333      0.1133   1498.0526    703.0000     54.6841
           26          19      0.8333      0.1200   1498.6436    703.0000     54.7233
           26          20      0.8333      0.1267   1499.2984    703.0000     54.7668
           26          21      0.8333      0.1333   1500.0159    703.0000     54.8144
           26          22      0.8333      0.1400   1500.7946    703.0000     54.8662
           26          23      0.8333      0.1467   1501.6329    703.0000     54.9220
           26          24      0.8333      0.1533   1502.5288    703.0000     54.9818
           26          25      0.8333      0.1600   1503.4801    703.0000     55.0453
           26          26      0.8333      0.1667   1504.4845    703.0000     55.1125
           26          27      0.8333      0.1733   1505.5392    703.0000     55.1831
           26          28      0.8333      0.1800   1506.6413    703.0000     55.2571
           26          29      0.8333      0.1867   1507.7879    703.0000     55.3341
           26          30      0.8333      0.1933   1508.9756    703.0000     55.4141
           26          31      0.8333      0.2000   1510.2011    703.0000     55.4968
           27           1      0.8667      0.0000   1498.4366    703.0000     54.7096
           27           2      0.8667      0.0067   1498.0892    703.0000     54.6866
           27           3      0.8667      0.0133   1497.7812    703.0000     54.6662
           27           4      0.8667      0.0200   1497.5152    703.0000     54.6485
           27           5      0.8667      0.0267   1497.2939    703.0000     54.6339
           27           6      0.8667      0.0333   1497.1197    703.0000     54.6224
           27           7      0.8667      0.0400   1496.9947    703.0000     54.6141
           27           8      0.8667      0.0467   1496.9210    703.0000     54.6092
           27           9      0.8667      0.0533   1496.9005    703.0000     54.6079
           27          10      0.8667      0.0600   1496.9348    703.0000     54.6101
           27          11      0.8667      0.0667   1497.0254    703.0000     54.6161
           27          12      0.8667      0.0733   1497.1735    703.0000     54.6259
           27          13      0.8667      0.0800   1497.3802    703.0000     54.6396
           27          14      0.8667      0.0867   1497.6462    703.0000     54.6572
           27          15      0.8667      0.0933   1497.9721    703.0000     54.6788
           27          16      0.8667      0.1000   1498.3583    703.0000     54.7044
           27          17      0.8667      0.1067   1498.8047    703.0000     54.7340
           27          18      0.8667      0.1133   1499.3114    703.0000     54.7676
           27          19      0.8667      0.1200   1499.8778    703.0000     54.8053
           27          20      0.8667      0.1267   1500.5033    703.0000     54.8468
           27          21      0.8667      0.1333   1501.1870    703.0000     54.8923
           27          22      0.8667      0.1400   1501.9278    703.0000     54.9417
           27          23      0.8667      0.1467   1502.7243    703.0000     54.9948
           27          24      0.8667      0.1533   1503.5748    703.0000     55.0516
           27          25      0.8667      0.1600   1504.4775    703.0000     55.1120
           27          26      0.8667      0.1667   1505.4302    703.0000     55.1758
           27          27      0.8667      0.1733   1506.4306    703.0000     55.2429
           27          28      0.8667      0.1800   1507.4761    703.0000     55.3132
           27          29      0.8667      0.1867   1508.5640    703.0000     55.3864
           27          30      0.8667      0.1933   1509.6911    703.0000     55.4624
           27          31      0.8667      0.2000   1510.8543    703.0000     55.5409
           28           1      0.9000      0.0000   1499.2788    703.0000     54.7655
           28           2      0.9000      0.0067   1498.9947    703.0000     54.7466
           28           3      0.9000      0.0133   1498.7454    703.0000     54.7301
           28           4      0.9000      0.0200   1498.5333    703.0000     54.7160
           28           5      0.9000      0.0267   1498.3606    703.0000     54.7046
           28           6      0.9000      0.0333   1498.2296    703.0000     54.6959
           28           7      0.9000      0.0400   1498.1422    703.0000     54.6901
           28           8      0.9000      0.0467   1498.1004    703.0000     54.6873
           28           9      0.9000      0.0533   1498.1058    703.0000     54.6877
           28          10      0.9000      0.0600   1498.1600    703.0000     54.6913
           28          11      0.9000      0.0667   1498.2644    703.0000     54.6982
           28          12      0.9000      0.0733   1498.4203    703.0000     54.7085
           28          13      0.9000      0.0800   1498.6287    703.0000     54.7223
           28          14      0.9000      0.0867   1498.8906    703.0000     54.7397
           28          15      0.9000      0.0933   1499.2066    703.0000     54.7607
           28          16      0.9000      0.1000   1499.5772    703.0000     54.7853
           28          17      0.9000      0.1067   1500.0028    703.0000     54.8136
           28          18      0.9000      0.1133   1500.4835    703.0000     54.8455
           28          19      0.9000      0.1200   1501.0193    703.0000     54.8812
           28          20      0.9000      0.1267   1501.6099    703.0000     54.9205
           28          21      0.9000      0.1333   1502.2547    703.0000     54.9635
           28          22      0.9000      0.1400   1502.9531    703.0000     55.0101
           28          23      0.9000      0.1467   1503.7042    703.0000     55.0603
           28          24      0.9000      0.1533   1504.5068    703.0000     55.1140
           28          25      0.9000      0.1600   1505.3595    703.0000     55.1711
           28          26      0.9000      0.1667   1506.2607    703.0000     55.2315
           28          27      0.9000      0.1733   1507.2084    703.0000     55.2952
           28          28      0.9000      0.1800   1508.2004    703.0000     55.3619
           28          29      0.9000      0.1867   1509.2343    703.0000     55.4315
           28          30      0.9000      0.1933   1510.3072    703.0000     55.5039
           28          31      0.9000      0.2000   1511.4163    703.0000     55.5789
           29           1      0.9333      0.0000   1500.0840    703.0000     54.8190
           29           2      0.9333      0.0067   1499.8600    703.0000     54.8041
           29           3      0.9333      0.0133   1499.6657    703.0000     54.7912
           29           4      0.9333      0.0200   1499.5031    703.0000     54.7804
           29           5      0.9333      0.0267   1499.3742    703.0000     54.7718
           29           6      0.9333      0.0333   1499.2809    703.0000     54.7656
           29           7      0.9333      0.0400   1499.2250    703.0000     54.7619
           29           8      0.9333      0.0467   1499.2081    703.0000     54.7608
           29           9      0.9333      0.0533   1499.2318    703.0000     54.7623
           29          10      0.9333      0.0600   1499.2977    703.0000     54.7667
           29          11      0.9333      0.0667   1499.4070    703.0000     54.7740
           29          12      0.9333      0.0733   1499.5611    703.0000     54.7842
           29          13      0.9333      0.0800   1499.7611    703.0000     54.7975
           29          14      0.9333      0.0867   1500.0080    703.0000     54.8139
           29          15      0.9333      0.0933   1500.3027    703.0000     54.8335
           29          16      0.9333      0.1000   1500.6461    703.0000     54.8563
           29          17      0.9333      0.1067   1501.0389    703.0000     54.8825
           29          18      0.9333      0.1133   1501.4816    703.0000     54.9120
           29          19      0.9333      0.1200   1501.9747    703.0000     54.9448
           29          20      0.9333      0.1267   1502.5185    703.0000     54.9811
           29          21      0.9333      0.1333   1503.1132    703.0000     55.0208
           29          22      0.9333      0.1400   1503.7590    703.0000     55.0640
           29          23      0.9333      0.1467   1504.4558    703.0000     55.1106
           29          24      0.9333      0.1533   1505.2032    703.0000     55.1606
           29          25      0.9333      0.1600   1506.0009    703.0000     55.2141
           29          26      0.9333      0.1667   1506.8481    703.0000     55.2710
           29          27      0.9333      0.1733   1507.7439    703.0000     55.3312
           29          28      0.9333      0.1800   1508.6870    703.0000     55.3947
           29          29      0.9333      0.1867   1509.6755    703.0000     55.4613
           29          30      0.9333      0.1933   1510.7072    703.0000     55.5310
           29          31      0.9333      0.2000   1511.7792    703.0000     55.6034
           30           1      0.9667      0.0000   1500.8361    703.0000     54.8690
           30           2      0.9667      0.0067   1500.6677    703.0000     54.8578
           30           3      0.9667      0.0133   1500.5232    703.0000     54.8482
           30           4      0.9667      0.0200   1500.4041    703.0000     54.8402
           30           5      0.9667      0.0267   1500.3121    703.0000     54.8341
           30           6      0.9667      0.0333   1500.2487    703.0000     54.8299
           30           7      0.9667      0.0400   1500.2154    703.0000     54.8277
           30           8      0.9667      0.0467   1500.2137    703.0000     54.8276
           30           9      0.9667      0.0533   1500.2449    703.0000     54.8297
           30          10      0.9667      0.0600   1500.3104    703.0000     54.8340
           30          11      0.9667      0.0667   1500.4113    703.0000     54.8407
           30          12      0.9667      0.0733   1500.5490    703.0000     54.8499
           30          13      0.9667      0.0800   1500.7247    703.0000     54.8616
           30          14      0.9667      0.0867   1500.9394    703.0000     54.8759
           30          15      0.9667      0.0933   1501.1942    703.0000     54.8928
           30          16      0.9667      0.1000   1501.4903    703.0000     54.9125
           30          17      0.9667      0.1067   1501.8287    703.0000     54.9351
           30          18      0.9667      0.1133   1502.2105    703.0000     54.9606
           30          19      0.9667      0.1200   1502.6369    703.0000     54.9890
           30          20      0.9667      0.1267   1503.1091    703.0000     55.0205
           30          21      0.9667      0.1333   1503.6283    703.0000     55.0552
           30          22      0.9667      0.1400   1504.1958    703.0000     55.0932
           30          23      0.9667      0.1467   1504.8130    703.0000     55.1345
           30          24      0.9667      0.1533   1505.4815    703.0000     55.1793
           30          25      0.9667      0.1600   1506.2030    703.0000     55.2277
           30          26      0.9667      0.1667   1506.9792    703.0000     55.2798
           30          27      0.9667      0.1733   1507.8117    703.0000     55.3357
           30          28      0.9667      0.1800   1508.7022    703.0000     55.3957
           30          29      0.9667      0.1867   1509.6519    703.0000     55.4597
           30          30      0.9667      0.1933   1510.6611    703.0000     55.5278
           30          31      0.9667      0.2000   1511.7289    703.0000     55.6000
           31           1      1.0000      0.0000   1501.5296    703.0000     54.9152
           31           2      1.0000      0.0067   1501.4119    703.0000     54.9073
           31           3      1.0000      0.0133   1501.3113    703.0000     54.9006
           31           4      1.0000      0.0200   1501.2290    703.0000     54.8951
           31           5      1.0000      0.0267   1501.1662    703.0000     54.8910
           31           6      1.0000      0.0333   1501.1239    703.0000     54.8881
           31           7      1.0000      0.0400   1501.1033    703.0000     54.8868
           31           8      1.0000      0.0467   1501.1054    703.0000     54.8869
           31           9      1.0000      0.0533   1501.1313    703.0000     54.8886
           31          10      1.0000      0.0600   1501.1819    703.0000     54.8920
           31          11      1.0000      0.0667   1501.2583    703.0000     54.8971
           31          12      1.0000      0.0733   1501.3614    703.0000     54.9040
           31          13      1.0000      0.0800   1501.4921    703.0000     54.9127
           31          14      1.0000      0.0867   1501.6515    703.0000     54.9233
           31          15      1.0000      0.0933   1501.8404    703.0000     54.9359
           31          16      1.0000      0.1000   1502.0600    703.0000     54.9505
           31          17      1.0000      0.1067   1502.3113    703.0000     54.9673
           31          18      1.0000      0.1133   1502.5955    703.0000     54.9862
           31          19      1.0000      0.1200   1502.9139    703.0000     55.0075
           31          20      1.0000      0.1267   1503.2682    703.0000     55.0312
           31          21      1.0000      0.1333   1503.6602    703.0000     55.0573
           31          22      1.0000      0.1400   1504.0921    703.0000     55.0862
           31          23      1.0000      0.1467   1504.5667    703.0000     55.1180
           31          24      1.0000      0.1533   1505.0877    703.0000     55.1529
           31          25      1.0000      0.1600   1505.6597    703.0000     55.1912
           31          26      1.0000      0.1667   1506.2886    703.0000     55.2334
           31          27      1.0000      0.1733   1506.9825    703.0000     55.2800
           31          28      1.0000      0.1800   1507.7522    703.0000     55.3317
           31          29      1.0000      0.1867   1508.6121    703.0000     55.3896
           31          30      1.0000      0.1933   1509.5821    703.0000     55.4550
           31          31      1.0000      0.2000   1510.6897    703.0000     55.5298
