 ====================================================================================
               Transient state solution for a 2D rectangular plate
                    for applications in steel reheating
                 e.g. Reheating furnaces for rolling processing
 ====================================================================================
 Author: Dickson Alves de Souza

 Based on lectures by professor Roberto Parreiras Tavares

 and book Numerical Heat Transfer and Fluid Flow
 by Suhas V. Patankar (1980)

 Federal University of Minas Gerais (UFMG)
 October 26th, 2017
 ====================================================================================
                              Input parameters:

 Lenght in X direction (meters):           1.0000
 Lenght in Y direction (meters):           0.2000
 Nodes in X direction:                         31
 Nodes in Y direction:                         31
 ====================================================================================

                       STAGE                1/  5
                       START Time:         0.0000
                       END Time:        1140.0000
                       Iterations:             2046

 ====================================================================================
 Temperature of fluid at left face (T left):             1223.1500
 Temperature of fluid at right face (T right):           1223.1500
 Temperature of fluid at bottom face (T bottom):         1223.1500
 Temperature of fluid at top face (T top):               1223.1500
 ------------------------------------------------------------------------------------
 Heat transfer coefficient at left face (H left):          50.0000
 Heat transfer coefficient at right face (H right):        50.0000
 Heat transfer coefficient at bottom face (H bottom):       8.0000
 Heat transfer coefficient at top face (H top):           150.0000
 ====================================================================================


 ====================================================================================

                       STAGE                2/  5
                       START Time:      1140.0000
                       END Time:        3060.0000
                       Iterations:             2046

 ====================================================================================
 Temperature of fluid at left face (T left):             1423.1500
 Temperature of fluid at right face (T right):           1423.1500
 Temperature of fluid at bottom face (T bottom):         1423.1500
 Temperature of fluid at top face (T top):               1423.1500
 ------------------------------------------------------------------------------------
 Heat transfer coefficient at left face (H left):          50.0000
 Heat transfer coefficient at right face (H right):        50.0000
 Heat transfer coefficient at bottom face (H bottom):       8.0000
 Heat transfer coefficient at top face (H top):           150.0000
 ====================================================================================


 ====================================================================================

                       STAGE                3/  5
                       START Time:      3060.0000
                       END Time:        4980.0000
                       Iterations:             2046

 ====================================================================================
 Temperature of fluid at left face (T left):             1513.1500
 Temperature of fluid at right face (T right):           1513.1500
 Temperature of fluid at bottom face (T bottom):         1513.1500
 Temperature of fluid at top face (T top):               1513.1500
 ------------------------------------------------------------------------------------
 Heat transfer coefficient at left face (H left):          50.0000
 Heat transfer coefficient at right face (H right):        50.0000
 Heat transfer coefficient at bottom face (H bottom):       8.0000
 Heat transfer coefficient at top face (H top):           150.0000
 ====================================================================================


 ====================================================================================

                       STAGE                4/  5
                       START Time:      4980.0000
                       END Time:        8400.0000
                       Iterations:             2046

 ====================================================================================
 Temperature of fluid at left face (T left):             1503.1500
 Temperature of fluid at right face (T right):           1503.1500
 Temperature of fluid at bottom face (T bottom):         1503.1500
 Temperature of fluid at top face (T top):               1523.1500
 ------------------------------------------------------------------------------------
 Heat transfer coefficient at left face (H left):          50.0000
 Heat transfer coefficient at right face (H right):        50.0000
 Heat transfer coefficient at bottom face (H bottom):       8.0000
 Heat transfer coefficient at top face (H top):           150.0000
 ====================================================================================


 ====================================================================================

                       STAGE                5/  5
                       START Time:      8400.0000
                       END Time:       18400.0000
                       Iterations:             2046

 ====================================================================================
 Temperature of fluid at left face (T left):             1393.1500
 Temperature of fluid at right face (T right):           1393.1500
 Temperature of fluid at bottom face (T bottom):         1393.1500
 Temperature of fluid at top face (T top):               1433.1500
 ------------------------------------------------------------------------------------
 Heat transfer coefficient at left face (H left):          50.0000
 Heat transfer coefficient at right face (H right):        50.0000
 Heat transfer coefficient at bottom face (H bottom):       8.0000
 Heat transfer coefficient at top face (H top):           150.0000
 ====================================================================================


 SOLUTION of LINEAR SYSTEM: TDMA (tri-diagonal matrix algorithm)
      ADI approach employed in solution.
 Tolerance:       0.0010

 ====================================================================================
                    Calculation Results
 Current time:    14000.000000000000       seconds
 Maximum Temperature :    1426.2224436434419
 Minimum Temperature :    1397.2424974308428
 Average(algebraic, non-weigthed) Temperature :    1412.9011151677519
 ====================================================================================
            I           J        X(m)        Y(m)        T(K)  Cp(J/kg.K) K(W/sq-m.K)
 ====================================================================================
            1           1      0.0000      0.0000   1397.2425    703.0000     48.5782
            1           2      0.0000      0.0067   1397.5330    703.0000     48.5940
            1           3      0.0000      0.0133   1397.8287    703.0000     48.6101
            1           4      0.0000      0.0200   1398.1298    703.0000     48.6266
            1           5      0.0000      0.0267   1398.4369    703.0000     48.6434
            1           6      0.0000      0.0333   1398.7505    703.0000     48.6605
            1           7      0.0000      0.0400   1399.0712    703.0000     48.6781
            1           8      0.0000      0.0467   1399.3997    703.0000     48.6960
            1           9      0.0000      0.0533   1399.7366    703.0000     48.7145
            1          10      0.0000      0.0600   1400.0830    703.0000     48.7335
            1          11      0.0000      0.0667   1400.4397    703.0000     48.7531
            1          12      0.0000      0.0733   1400.8078    703.0000     48.7733
            1          13      0.0000      0.0800   1401.1886    703.0000     48.7942
            1          14      0.0000      0.0867   1401.5834    703.0000     48.8160
            1          15      0.0000      0.0933   1401.9940    703.0000     48.8386
            1          16      0.0000      0.1000   1402.4221    703.0000     48.8622
            1          17      0.0000      0.1067   1402.8700    703.0000     48.8869
            1          18      0.0000      0.1133   1403.3401    703.0000     48.9129
            1          19      0.0000      0.1200   1403.8354    703.0000     48.9402
            1          20      0.0000      0.1267   1404.3595    703.0000     48.9693
            1          21      0.0000      0.1333   1404.9166    703.0000     49.0001
            1          22      0.0000      0.1400   1405.5117    703.0000     49.0332
            1          23      0.0000      0.1467   1406.1512    703.0000     49.0687
            1          24      0.0000      0.1533   1406.8428    703.0000     49.1072
            1          25      0.0000      0.1600   1407.5964    703.0000     49.1493
            1          26      0.0000      0.1667   1408.4246    703.0000     49.1955
            1          27      0.0000      0.1733   1409.3434    703.0000     49.2469
            1          28      0.0000      0.1800   1410.3741    703.0000     49.3047
            1          29      0.0000      0.1867   1411.5448    703.0000     49.3706
            1          30      0.0000      0.1933   1412.8932    703.0000     49.4466
            1          31      0.0000      0.2000   1414.4702    703.0000     49.5358
            2           1      0.0333      0.0000   1398.7222    703.0000     48.6590
            2           2      0.0333      0.0067   1399.1175    703.0000     48.6806
            2           3      0.0333      0.0133   1399.5192    703.0000     48.7026
            2           4      0.0333      0.0200   1399.9278    703.0000     48.7250
            2           5      0.0333      0.0267   1400.3440    703.0000     48.7478
            2           6      0.0333      0.0333   1400.7683    703.0000     48.7711
            2           7      0.0333      0.0400   1401.2016    703.0000     48.7949
            2           8      0.0333      0.0467   1401.6444    703.0000     48.8193
            2           9      0.0333      0.0533   1402.0979    703.0000     48.8443
            2          10      0.0333      0.0600   1402.5630    703.0000     48.8699
            2          11      0.0333      0.0667   1403.0408    703.0000     48.8963
            2          12      0.0333      0.0733   1403.5326    703.0000     48.9235
            2          13      0.0333      0.0800   1404.0397    703.0000     48.9516
            2          14      0.0333      0.0867   1404.5637    703.0000     48.9806
            2          15      0.0333      0.0933   1405.1064    703.0000     49.0107
            2          16      0.0333      0.1000   1405.6696    703.0000     49.0420
            2          17      0.0333      0.1067   1406.2555    703.0000     49.0745
            2          18      0.0333      0.1133   1406.8666    703.0000     49.1086
            2          19      0.0333      0.1200   1407.5056    703.0000     49.1442
            2          20      0.0333      0.1267   1408.1753    703.0000     49.1816
            2          21      0.0333      0.1333   1408.8793    703.0000     49.2209
            2          22      0.0333      0.1400   1409.6212    703.0000     49.2625
            2          23      0.0333      0.1467   1410.4051    703.0000     49.3065
            2          24      0.0333      0.1533   1411.2355    703.0000     49.3532
            2          25      0.0333      0.1600   1412.1173    703.0000     49.4028
            2          26      0.0333      0.1667   1413.0557    703.0000     49.4558
            2          27      0.0333      0.1733   1414.0561    703.0000     49.5124
            2          28      0.0333      0.1800   1415.1236    703.0000     49.5729
            2          29      0.0333      0.1867   1416.2631    703.0000     49.6376
            2          30      0.0333      0.1933   1417.4779    703.0000     49.7068
            2          31      0.0333      0.2000   1418.7689    703.0000     49.7805
            3           1      0.0667      0.0000   1399.9998    703.0000     48.7289
            3           2      0.0667      0.0067   1400.4850    703.0000     48.7556
            3           3      0.0667      0.0133   1400.9766    703.0000     48.7826
            3           4      0.0667      0.0200   1401.4751    703.0000     48.8100
            3           5      0.0667      0.0267   1401.9811    703.0000     48.8379
            3           6      0.0667      0.0333   1402.4951    703.0000     48.8662
            3           7      0.0667      0.0400   1403.0179    703.0000     48.8950
            3           8      0.0667      0.0467   1403.5501    703.0000     48.9245
            3           9      0.0667      0.0533   1404.0926    703.0000     48.9545
            3          10      0.0667      0.0600   1404.6462    703.0000     48.9852
            3          11      0.0667      0.0667   1405.2119    703.0000     49.0165
            3          12      0.0667      0.0733   1405.7907    703.0000     49.0487
            3          13      0.0667      0.0800   1406.3837    703.0000     49.0817
            3          14      0.0667      0.0867   1406.9921    703.0000     49.1155
            3          15      0.0667      0.0933   1407.6172    703.0000     49.1504
            3          16      0.0667      0.1000   1408.2604    703.0000     49.1863
            3          17      0.0667      0.1067   1408.9231    703.0000     49.2234
            3          18      0.0667      0.1133   1409.6069    703.0000     49.2617
            3          19      0.0667      0.1200   1410.3134    703.0000     49.3013
            3          20      0.0667      0.1267   1411.0443    703.0000     49.3424
            3          21      0.0667      0.1333   1411.8014    703.0000     49.3850
            3          22      0.0667      0.1400   1412.5865    703.0000     49.4293
            3          23      0.0667      0.1467   1413.4013    703.0000     49.4753
            3          24      0.0667      0.1533   1414.2476    703.0000     49.5232
            3          25      0.0667      0.1600   1415.1270    703.0000     49.5731
            3          26      0.0667      0.1667   1416.0408    703.0000     49.6250
            3          27      0.0667      0.1733   1416.9902    703.0000     49.6790
            3          28      0.0667      0.1800   1417.9757    703.0000     49.7352
            3          29      0.0667      0.1867   1418.9975    703.0000     49.7936
            3          30      0.0667      0.1933   1420.0549    703.0000     49.8542
            3          31      0.0667      0.2000   1421.1463    703.0000     49.9169
            4           1      0.1000      0.0000   1401.0626    703.0000     48.7873
            4           2      0.1000      0.0067   1401.6221    703.0000     48.8181
            4           3      0.1000      0.0133   1402.1870    703.0000     48.8492
            4           4      0.1000      0.0200   1402.7577    703.0000     48.8807
            4           5      0.1000      0.0267   1403.3347    703.0000     48.9126
            4           6      0.1000      0.0333   1403.9183    703.0000     48.9448
            4           7      0.1000      0.0400   1404.5092    703.0000     48.9776
            4           8      0.1000      0.0467   1405.1080    703.0000     49.0108
            4           9      0.1000      0.0533   1405.7151    703.0000     49.0445
            4          10      0.1000      0.0600   1406.3313    703.0000     49.0787
            4          11      0.1000      0.0667   1406.9571    703.0000     49.1136
            4          12      0.1000      0.0733   1407.5934    703.0000     49.1491
            4          13      0.1000      0.0800   1408.2409    703.0000     49.1852
            4          14      0.1000      0.0867   1408.9003    703.0000     49.2221
            4          15      0.1000      0.0933   1409.5724    703.0000     49.2598
            4          16      0.1000      0.1000   1410.2582    703.0000     49.2982
            4          17      0.1000      0.1067   1410.9583    703.0000     49.3376
            4          18      0.1000      0.1133   1411.6737    703.0000     49.3778
            4          19      0.1000      0.1200   1412.4052    703.0000     49.4191
            4          20      0.1000      0.1267   1413.1537    703.0000     49.4613
            4          21      0.1000      0.1333   1413.9199    703.0000     49.5046
            4          22      0.1000      0.1400   1414.7045    703.0000     49.5491
            4          23      0.1000      0.1467   1415.5082    703.0000     49.5947
            4          24      0.1000      0.1533   1416.3316    703.0000     49.6415
            4          25      0.1000      0.1600   1417.1750    703.0000     49.6895
            4          26      0.1000      0.1667   1418.0387    703.0000     49.7388
            4          27      0.1000      0.1733   1418.9226    703.0000     49.7893
            4          28      0.1000      0.1800   1419.8266    703.0000     49.8411
            4          29      0.1000      0.1867   1420.7501    703.0000     49.8941
            4          30      0.1000      0.1933   1421.6923    703.0000     49.9483
            4          31      0.1000      0.2000   1422.6520    703.0000     50.0035
            5           1      0.1333      0.0000   1401.9223    703.0000     48.8346
            5           2      0.1333      0.0067   1402.5415    703.0000     48.8688
            5           3      0.1333      0.0133   1403.1646    703.0000     48.9032
            5           4      0.1333      0.0200   1403.7919    703.0000     48.9378
            5           5      0.1333      0.0267   1404.4236    703.0000     48.9728
            5           6      0.1333      0.0333   1405.0600    703.0000     49.0081
            5           7      0.1333      0.0400   1405.7017    703.0000     49.0437
            5           8      0.1333      0.0467   1406.3488    703.0000     49.0797
            5           9      0.1333      0.0533   1407.0019    703.0000     49.1161
            5          10      0.1333      0.0600   1407.6614    703.0000     49.1529
            5          11      0.1333      0.0667   1408.3276    703.0000     49.1901
            5          12      0.1333      0.0733   1409.0010    703.0000     49.2278
            5          13      0.1333      0.0800   1409.6821    703.0000     49.2659
            5          14      0.1333      0.0867   1410.3713    703.0000     49.3046
            5          15      0.1333      0.0933   1411.0692    703.0000     49.3438
            5          16      0.1333      0.1000   1411.7760    703.0000     49.3836
            5          17      0.1333      0.1067   1412.4924    703.0000     49.4240
            5          18      0.1333      0.1133   1413.2187    703.0000     49.4650
            5          19      0.1333      0.1200   1413.9554    703.0000     49.5067
            5          20      0.1333      0.1267   1414.7028    703.0000     49.5490
            5          21      0.1333      0.1333   1415.4612    703.0000     49.5920
            5          22      0.1333      0.1400   1416.2309    703.0000     49.6358
            5          23      0.1333      0.1467   1417.0122    703.0000     49.6802
            5          24      0.1333      0.1533   1417.8052    703.0000     49.7255
            5          25      0.1333      0.1600   1418.6098    703.0000     49.7714
            5          26      0.1333      0.1667   1419.4261    703.0000     49.8181
            5          27      0.1333      0.1733   1420.2538    703.0000     49.8656
            5          28      0.1333      0.1800   1421.0927    703.0000     49.9138
            5          29      0.1333      0.1867   1421.9423    703.0000     49.9627
            5          30      0.1333      0.1933   1422.8021    703.0000     50.0122
            5          31      0.1333      0.2000   1423.6713    703.0000     50.0624
            6           1      0.1667      0.0000   1402.6036    703.0000     48.8722
            6           2      0.1667      0.0067   1403.2700    703.0000     48.9090
            6           3      0.1667      0.0133   1403.9386    703.0000     48.9460
            6           4      0.1667      0.0200   1404.6095    703.0000     48.9831
            6           5      0.1667      0.0267   1405.2829    703.0000     49.0205
            6           6      0.1667      0.0333   1405.9590    703.0000     49.0580
            6           7      0.1667      0.0400   1406.6382    703.0000     49.0958
            6           8      0.1667      0.0467   1407.3204    703.0000     49.1339
            6           9      0.1667      0.0533   1408.0062    703.0000     49.1721
            6          10      0.1667      0.0600   1408.6956    703.0000     49.2107
            6          11      0.1667      0.0667   1409.3889    703.0000     49.2495
            6          12      0.1667      0.0733   1410.0864    703.0000     49.2886
            6          13      0.1667      0.0800   1410.7883    703.0000     49.3280
            6          14      0.1667      0.0867   1411.4949    703.0000     49.3678
            6          15      0.1667      0.0933   1412.2065    703.0000     49.4079
            6          16      0.1667      0.1000   1412.9233    703.0000     49.4483
            6          17      0.1667      0.1067   1413.6455    703.0000     49.4891
            6          18      0.1667      0.1133   1414.3734    703.0000     49.5303
            6          19      0.1667      0.1200   1415.1071    703.0000     49.5719
            6          20      0.1667      0.1267   1415.8468    703.0000     49.6139
            6          21      0.1667      0.1333   1416.5926    703.0000     49.6564
            6          22      0.1667      0.1400   1417.3448    703.0000     49.6992
            6          23      0.1667      0.1467   1418.1032    703.0000     49.7425
            6          24      0.1667      0.1533   1418.8680    703.0000     49.7862
            6          25      0.1667      0.1600   1419.6392    703.0000     49.8304
            6          26      0.1667      0.1667   1420.4165    703.0000     49.8749
            6          27      0.1667      0.1733   1421.1999    703.0000     49.9199
            6          28      0.1667      0.1800   1421.9892    703.0000     49.9654
            6          29      0.1667      0.1867   1422.7840    703.0000     50.0112
            6          30      0.1667      0.1933   1423.5841    703.0000     50.0574
            6          31      0.1667      0.2000   1424.3891    703.0000     50.1039
            7           1      0.2000      0.0000   1403.1361    703.0000     48.9016
            7           2      0.2000      0.0067   1403.8392    703.0000     48.9405
            7           3      0.2000      0.0133   1404.5428    703.0000     48.9794
            7           4      0.2000      0.0200   1405.2472    703.0000     49.0185
            7           5      0.2000      0.0267   1405.9522    703.0000     49.0577
            7           6      0.2000      0.0333   1406.6581    703.0000     49.0969
            7           7      0.2000      0.0400   1407.3649    703.0000     49.1363
            7           8      0.2000      0.0467   1408.0728    703.0000     49.1758
            7           9      0.2000      0.0533   1408.7819    703.0000     49.2155
            7          10      0.2000      0.0600   1409.4922    703.0000     49.2553
            7          11      0.2000      0.0667   1410.2041    703.0000     49.2952
            7          12      0.2000      0.0733   1410.9175    703.0000     49.3353
            7          13      0.2000      0.0800   1411.6326    703.0000     49.3755
            7          14      0.2000      0.0867   1412.3495    703.0000     49.4159
            7          15      0.2000      0.0933   1413.0685    703.0000     49.4565
            7          16      0.2000      0.1000   1413.7895    703.0000     49.4973
            7          17      0.2000      0.1067   1414.5128    703.0000     49.5382
            7          18      0.2000      0.1133   1415.2385    703.0000     49.5794
            7          19      0.2000      0.1200   1415.9666    703.0000     49.6207
            7          20      0.2000      0.1267   1416.6972    703.0000     49.6623
            7          21      0.2000      0.1333   1417.4305    703.0000     49.7041
            7          22      0.2000      0.1400   1418.1664    703.0000     49.7461
            7          23      0.2000      0.1467   1418.9051    703.0000     49.7883
            7          24      0.2000      0.1533   1419.6465    703.0000     49.8308
            7          25      0.2000      0.1600   1420.3906    703.0000     49.8734
            7          26      0.2000      0.1667   1421.1373    703.0000     49.9163
            7          27      0.2000      0.1733   1421.8867    703.0000     49.9595
            7          28      0.2000      0.1800   1422.6385    703.0000     50.0028
            7          29      0.2000      0.1867   1423.3927    703.0000     50.0463
            7          30      0.2000      0.1933   1424.1491    703.0000     50.0900
            7          31      0.2000      0.2000   1424.9075    703.0000     50.1339
            8           1      0.2333      0.0000   1403.5479    703.0000     48.9243
            8           2      0.2333      0.0067   1404.2793    703.0000     48.9648
            8           3      0.2333      0.0133   1405.0099    703.0000     49.0053
            8           4      0.2333      0.0200   1405.7397    703.0000     49.0458
            8           5      0.2333      0.0267   1406.4687    703.0000     49.0864
            8           6      0.2333      0.0333   1407.1969    703.0000     49.1270
            8           7      0.2333      0.0400   1407.9243    703.0000     49.1676
            8           8      0.2333      0.0467   1408.6509    703.0000     49.2082
            8           9      0.2333      0.0533   1409.3769    703.0000     49.2488
            8          10      0.2333      0.0600   1410.1022    703.0000     49.2895
            8          11      0.2333      0.0667   1410.8269    703.0000     49.3302
            8          12      0.2333      0.0733   1411.5511    703.0000     49.3709
            8          13      0.2333      0.0800   1412.2747    703.0000     49.4117
            8          14      0.2333      0.0867   1412.9980    703.0000     49.4525
            8          15      0.2333      0.0933   1413.7209    703.0000     49.4934
            8          16      0.2333      0.1000   1414.4436    703.0000     49.5343
            8          17      0.2333      0.1067   1415.1660    703.0000     49.5753
            8          18      0.2333      0.1133   1415.8883    703.0000     49.6163
            8          19      0.2333      0.1200   1416.6105    703.0000     49.6574
            8          20      0.2333      0.1267   1417.3328    703.0000     49.6985
            8          21      0.2333      0.1333   1418.0551    703.0000     49.7397
            8          22      0.2333      0.1400   1418.7774    703.0000     49.7810
            8          23      0.2333      0.1467   1419.5000    703.0000     49.8224
            8          24      0.2333      0.1533   1420.2227    703.0000     49.8638
            8          25      0.2333      0.1600   1420.9457    703.0000     49.9053
            8          26      0.2333      0.1667   1421.6689    703.0000     49.9469
            8          27      0.2333      0.1733   1422.3923    703.0000     49.9886
            8          28      0.2333      0.1800   1423.1159    703.0000     50.0303
            8          29      0.2333      0.1867   1423.8397    703.0000     50.0721
            8          30      0.2333      0.1933   1424.5637    703.0000     50.1140
            8          31      0.2333      0.2000   1425.2878    703.0000     50.1560
            9           1      0.2667      0.0000   1403.8638    703.0000     48.9418
            9           2      0.2667      0.0067   1404.6169    703.0000     48.9835
            9           3      0.2667      0.0133   1405.3681    703.0000     49.0252
            9           4      0.2667      0.0200   1406.1172    703.0000     49.0668
            9           5      0.2667      0.0267   1406.8643    703.0000     49.1084
            9           6      0.2667      0.0333   1407.6092    703.0000     49.1500
            9           7      0.2667      0.0400   1408.3519    703.0000     49.1914
            9           8      0.2667      0.0467   1409.0924    703.0000     49.2329
            9           9      0.2667      0.0533   1409.8308    703.0000     49.2743
            9          10      0.2667      0.0600   1410.5668    703.0000     49.3156
            9          11      0.2667      0.0667   1411.3007    703.0000     49.3568
            9          12      0.2667      0.0733   1412.0323    703.0000     49.3980
            9          13      0.2667      0.0800   1412.7617    703.0000     49.4392
            9          14      0.2667      0.0867   1413.4890    703.0000     49.4803
            9          15      0.2667      0.0933   1414.2141    703.0000     49.5213
            9          16      0.2667      0.1000   1414.9371    703.0000     49.5623
            9          17      0.2667      0.1067   1415.6580    703.0000     49.6032
            9          18      0.2667      0.1133   1416.3770    703.0000     49.6441
            9          19      0.2667      0.1200   1417.0940    703.0000     49.6849
            9          20      0.2667      0.1267   1417.8091    703.0000     49.7257
            9          21      0.2667      0.1333   1418.5223    703.0000     49.7664
            9          22      0.2667      0.1400   1419.2339    703.0000     49.8071
            9          23      0.2667      0.1467   1419.9437    703.0000     49.8478
            9          24      0.2667      0.1533   1420.6519    703.0000     49.8884
            9          25      0.2667      0.1600   1421.3586    703.0000     49.9291
            9          26      0.2667      0.1667   1422.0638    703.0000     49.9696
            9          27      0.2667      0.1733   1422.7675    703.0000     50.0102
            9          28      0.2667      0.1800   1423.4699    703.0000     50.0508
            9          29      0.2667      0.1867   1424.1710    703.0000     50.0913
            9          30      0.2667      0.1933   1424.8709    703.0000     50.1318
            9          31      0.2667      0.2000   1425.5696    703.0000     50.1723
           10           1      0.3000      0.0000   1404.1042    703.0000     48.9551
           10           2      0.3000      0.0067   1404.8738    703.0000     48.9978
           10           3      0.3000      0.0133   1405.6405    703.0000     49.0403
           10           4      0.3000      0.0200   1406.4042    703.0000     49.0828
           10           5      0.3000      0.0267   1407.1649    703.0000     49.1252
           10           6      0.3000      0.0333   1407.9223    703.0000     49.1674
           10           7      0.3000      0.0400   1408.6765    703.0000     49.2096
           10           8      0.3000      0.0467   1409.4273    703.0000     49.2516
           10           9      0.3000      0.0533   1410.1747    703.0000     49.2936
           10          10      0.3000      0.0600   1410.9186    703.0000     49.3353
           10          11      0.3000      0.0667   1411.6590    703.0000     49.3770
           10          12      0.3000      0.0733   1412.3959    703.0000     49.4185
           10          13      0.3000      0.0800   1413.1293    703.0000     49.4599
           10          14      0.3000      0.0867   1413.8591    703.0000     49.5012
           10          15      0.3000      0.0933   1414.5855    703.0000     49.5423
           10          16      0.3000      0.1000   1415.3083    703.0000     49.5833
           10          17      0.3000      0.1067   1416.0277    703.0000     49.6242
           10          18      0.3000      0.1133   1416.7437    703.0000     49.6650
           10          19      0.3000      0.1200   1417.4564    703.0000     49.7056
           10          20      0.3000      0.1267   1418.1658    703.0000     49.7461
           10          21      0.3000      0.1333   1418.8719    703.0000     49.7864
           10          22      0.3000      0.1400   1419.5750    703.0000     49.8267
           10          23      0.3000      0.1467   1420.2750    703.0000     49.8668
           10          24      0.3000      0.1533   1420.9720    703.0000     49.9068
           10          25      0.3000      0.1600   1421.6663    703.0000     49.9468
           10          26      0.3000      0.1667   1422.3578    703.0000     49.9866
           10          27      0.3000      0.1733   1423.0468    703.0000     50.0263
           10          28      0.3000      0.1800   1423.7332    703.0000     50.0660
           10          29      0.3000      0.1867   1424.4173    703.0000     50.1056
           10          30      0.3000      0.1933   1425.0992    703.0000     50.1451
           10          31      0.3000      0.2000   1425.7790    703.0000     50.1845
           11           1      0.3333      0.0000   1404.2850    703.0000     48.9651
           11           2      0.3333      0.0067   1405.0669    703.0000     49.0085
           11           3      0.3333      0.0133   1405.8454    703.0000     49.0517
           11           4      0.3333      0.0200   1406.6200    703.0000     49.0948
           11           5      0.3333      0.0267   1407.3908    703.0000     49.1378
           11           6      0.3333      0.0333   1408.1576    703.0000     49.1806
           11           7      0.3333      0.0400   1408.9202    703.0000     49.2232
           11           8      0.3333      0.0467   1409.6786    703.0000     49.2657
           11           9      0.3333      0.0533   1410.4327    703.0000     49.3080
           11          10      0.3333      0.0600   1411.1823    703.0000     49.3502
           11          11      0.3333      0.0667   1411.9275    703.0000     49.3921
           11          12      0.3333      0.0733   1412.6682    703.0000     49.4339
           11          13      0.3333      0.0800   1413.4043    703.0000     49.4755
           11          14      0.3333      0.0867   1414.1359    703.0000     49.5169
           11          15      0.3333      0.0933   1414.8630    703.0000     49.5581
           11          16      0.3333      0.1000   1415.5855    703.0000     49.5991
           11          17      0.3333      0.1067   1416.3036    703.0000     49.6399
           11          18      0.3333      0.1133   1417.0172    703.0000     49.6805
           11          19      0.3333      0.1200   1417.7264    703.0000     49.7210
           11          20      0.3333      0.1267   1418.4313    703.0000     49.7612
           11          21      0.3333      0.1333   1419.1319    703.0000     49.8013
           11          22      0.3333      0.1400   1419.8285    703.0000     49.8412
           11          23      0.3333      0.1467   1420.5211    703.0000     49.8809
           11          24      0.3333      0.1533   1421.2097    703.0000     49.9205
           11          25      0.3333      0.1600   1421.8946    703.0000     49.9599
           11          26      0.3333      0.1667   1422.5759    703.0000     49.9992
           11          27      0.3333      0.1733   1423.2538    703.0000     50.0383
           11          28      0.3333      0.1800   1423.9284    703.0000     50.0773
           11          29      0.3333      0.1867   1424.5998    703.0000     50.1161
           11          30      0.3333      0.1933   1425.2683    703.0000     50.1549
           11          31      0.3333      0.2000   1425.9341    703.0000     50.1935
           12           1      0.3667      0.0000   1404.4185    703.0000     48.9725
           12           2      0.3667      0.0067   1405.2096    703.0000     49.0164
           12           3      0.3667      0.0133   1405.9966    703.0000     49.0601
           12           4      0.3667      0.0200   1406.7793    703.0000     49.1037
           12           5      0.3667      0.0267   1407.5576    703.0000     49.1471
           12           6      0.3667      0.0333   1408.3312    703.0000     49.1903
           12           7      0.3667      0.0400   1409.1000    703.0000     49.2333
           12           8      0.3667      0.0467   1409.8640    703.0000     49.2761
           12           9      0.3667      0.0533   1410.6229    703.0000     49.3187
           12          10      0.3667      0.0600   1411.3767    703.0000     49.3611
           12          11      0.3667      0.0667   1412.1253    703.0000     49.4033
           12          12      0.3667      0.0733   1412.8686    703.0000     49.4452
           12          13      0.3667      0.0800   1413.6067    703.0000     49.4869
           12          14      0.3667      0.0867   1414.3395    703.0000     49.5284
           12          15      0.3667      0.0933   1415.0670    703.0000     49.5696
           12          16      0.3667      0.1000   1415.7892    703.0000     49.6107
           12          17      0.3667      0.1067   1416.5062    703.0000     49.6514
           12          18      0.3667      0.1133   1417.2179    703.0000     49.6920
           12          19      0.3667      0.1200   1417.9245    703.0000     49.7323
           12          20      0.3667      0.1267   1418.6260    703.0000     49.7724
           12          21      0.3667      0.1333   1419.3226    703.0000     49.8122
           12          22      0.3667      0.1400   1420.0143    703.0000     49.8519
           12          23      0.3667      0.1467   1420.7013    703.0000     49.8913
           12          24      0.3667      0.1533   1421.3838    703.0000     49.9305
           12          25      0.3667      0.1600   1422.0618    703.0000     49.9695
           12          26      0.3667      0.1667   1422.7356    703.0000     50.0084
           12          27      0.3667      0.1733   1423.4053    703.0000     50.0470
           12          28      0.3667      0.1800   1424.0711    703.0000     50.0855
           12          29      0.3667      0.1867   1424.7333    703.0000     50.1238
           12          30      0.3667      0.1933   1425.3920    703.0000     50.1620
           12          31      0.3667      0.2000   1426.0475    703.0000     50.2001
           13           1      0.4000      0.0000   1404.5139    703.0000     48.9778
           13           2      0.4000      0.0067   1405.3115    703.0000     49.0221
           13           3      0.4000      0.0133   1406.1047    703.0000     49.0661
           13           4      0.4000      0.0200   1406.8932    703.0000     49.1100
           13           5      0.4000      0.0267   1407.6767    703.0000     49.1537
           13           6      0.4000      0.0333   1408.4552    703.0000     49.1972
           13           7      0.4000      0.0400   1409.2284    703.0000     49.2405
           13           8      0.4000      0.0467   1409.9963    703.0000     49.2835
           13           9      0.4000      0.0533   1410.7586    703.0000     49.3263
           13          10      0.4000      0.0600   1411.5153    703.0000     49.3689
           13          11      0.4000      0.0667   1412.2663    703.0000     49.4112
           13          12      0.4000      0.0733   1413.0116    703.0000     49.4533
           13          13      0.4000      0.0800   1413.7510    703.0000     49.4951
           13          14      0.4000      0.0867   1414.4846    703.0000     49.5366
           13          15      0.4000      0.0933   1415.2124    703.0000     49.5779
           13          16      0.4000      0.1000   1415.9343    703.0000     49.6189
           13          17      0.4000      0.1067   1416.6504    703.0000     49.6596
           13          18      0.4000      0.1133   1417.3608    703.0000     49.7001
           13          19      0.4000      0.1200   1418.0655    703.0000     49.7403
           13          20      0.4000      0.1267   1418.7646    703.0000     49.7803
           13          21      0.4000      0.1333   1419.4582    703.0000     49.8200
           13          22      0.4000      0.1400   1420.1464    703.0000     49.8594
           13          23      0.4000      0.1467   1420.8295    703.0000     49.8986
           13          24      0.4000      0.1533   1421.5074    703.0000     49.9376
           13          25      0.4000      0.1600   1422.1805    703.0000     49.9764
           13          26      0.4000      0.1667   1422.8489    703.0000     50.0149
           13          27      0.4000      0.1733   1423.5128    703.0000     50.0532
           13          28      0.4000      0.1800   1424.1725    703.0000     50.0914
           13          29      0.4000      0.1867   1424.8280    703.0000     50.1293
           13          30      0.4000      0.1933   1425.4798    703.0000     50.1671
           13          31      0.4000      0.2000   1426.1280    703.0000     50.2048
           14           1      0.4333      0.0000   1404.5777    703.0000     48.9814
           14           2      0.4333      0.0067   1405.3797    703.0000     49.0259
           14           3      0.4333      0.0133   1406.1770    703.0000     49.0702
           14           4      0.4333      0.0200   1406.9693    703.0000     49.1143
           14           5      0.4333      0.0267   1407.7564    703.0000     49.1582
           14           6      0.4333      0.0333   1408.5381    703.0000     49.2019
           14           7      0.4333      0.0400   1409.3143    703.0000     49.2453
           14           8      0.4333      0.0467   1410.0847    703.0000     49.2885
           14           9      0.4333      0.0533   1410.8494    703.0000     49.3314
           14          10      0.4333      0.0600   1411.6080    703.0000     49.3741
           14          11      0.4333      0.0667   1412.3606    703.0000     49.4165
           14          12      0.4333      0.0733   1413.1071    703.0000     49.4587
           14          13      0.4333      0.0800   1413.8474    703.0000     49.5005
           14          14      0.4333      0.0867   1414.5816    703.0000     49.5421
           14          15      0.4333      0.0933   1415.3095    703.0000     49.5834
           14          16      0.4333      0.1000   1416.0312    703.0000     49.6244
           14          17      0.4333      0.1067   1416.7467    703.0000     49.6651
           14          18      0.4333      0.1133   1417.4562    703.0000     49.7056
           14          19      0.4333      0.1200   1418.1595    703.0000     49.7457
           14          20      0.4333      0.1267   1418.8570    703.0000     49.7856
           14          21      0.4333      0.1333   1419.5486    703.0000     49.8252
           14          22      0.4333      0.1400   1420.2345    703.0000     49.8645
           14          23      0.4333      0.1467   1420.9149    703.0000     49.9036
           14          24      0.4333      0.1533   1421.5899    703.0000     49.9424
           14          25      0.4333      0.1600   1422.2597    703.0000     49.9809
           14          26      0.4333      0.1667   1422.9245    703.0000     50.0193
           14          27      0.4333      0.1733   1423.5845    703.0000     50.0574
           14          28      0.4333      0.1800   1424.2400    703.0000     50.0953
           14          29      0.4333      0.1867   1424.8912    703.0000     50.1330
           14          30      0.4333      0.1933   1425.5383    703.0000     50.1705
           14          31      0.4333      0.2000   1426.1817    703.0000     50.2079
           15           1      0.4667      0.0000   1404.6144    703.0000     48.9834
           15           2      0.4667      0.0067   1405.4189    703.0000     49.0280
           15           3      0.4667      0.0133   1406.2185    703.0000     49.0725
           15           4      0.4667      0.0200   1407.0130    703.0000     49.1167
           15           5      0.4667      0.0267   1407.8021    703.0000     49.1607
           15           6      0.4667      0.0333   1408.5857    703.0000     49.2045
           15           7      0.4667      0.0400   1409.3636    703.0000     49.2481
           15           8      0.4667      0.0467   1410.1355    703.0000     49.2914
           15           9      0.4667      0.0533   1410.9014    703.0000     49.3344
           15          10      0.4667      0.0600   1411.6612    703.0000     49.3771
           15          11      0.4667      0.0667   1412.4147    703.0000     49.4196
           15          12      0.4667      0.0733   1413.1619    703.0000     49.4618
           15          13      0.4667      0.0800   1413.9027    703.0000     49.5037
           15          14      0.4667      0.0867   1414.6371    703.0000     49.5453
           15          15      0.4667      0.0933   1415.3651    703.0000     49.5866
           15          16      0.4667      0.1000   1416.0867    703.0000     49.6276
           15          17      0.4667      0.1067   1416.8019    703.0000     49.6683
           15          18      0.4667      0.1133   1417.5108    703.0000     49.7087
           15          19      0.4667      0.1200   1418.2135    703.0000     49.7488
           15          20      0.4667      0.1267   1418.9100    703.0000     49.7886
           15          21      0.4667      0.1333   1419.6004    703.0000     49.8281
           15          22      0.4667      0.1400   1420.2850    703.0000     49.8674
           15          23      0.4667      0.1467   1420.9638    703.0000     49.9064
           15          24      0.4667      0.1533   1421.6371    703.0000     49.9451
           15          25      0.4667      0.1600   1422.3050    703.0000     49.9835
           15          26      0.4667      0.1667   1422.9678    703.0000     50.0218
           15          27      0.4667      0.1733   1423.6256    703.0000     50.0598
           15          28      0.4667      0.1800   1424.2787    703.0000     50.0975
           15          29      0.4667      0.1867   1424.9273    703.0000     50.1351
           15          30      0.4667      0.1933   1425.5718    703.0000     50.1725
           15          31      0.4667      0.2000   1426.2124    703.0000     50.2097
           16           1      0.5000      0.0000   1404.6263    703.0000     48.9841
           16           2      0.5000      0.0067   1405.4317    703.0000     49.0287
           16           3      0.5000      0.0133   1406.2321    703.0000     49.0732
           16           4      0.5000      0.0200   1407.0273    703.0000     49.1175
           16           5      0.5000      0.0267   1407.8171    703.0000     49.1616
           16           6      0.5000      0.0333   1408.6012    703.0000     49.2054
           16           7      0.5000      0.0400   1409.3796    703.0000     49.2490
           16           8      0.5000      0.0467   1410.1521    703.0000     49.2923
           16           9      0.5000      0.0533   1410.9184    703.0000     49.3353
           16          10      0.5000      0.0600   1411.6786    703.0000     49.3781
           16          11      0.5000      0.0667   1412.4324    703.0000     49.4206
           16          12      0.5000      0.0733   1413.1798    703.0000     49.4628
           16          13      0.5000      0.0800   1413.9208    703.0000     49.5047
           16          14      0.5000      0.0867   1414.6553    703.0000     49.5463
           16          15      0.5000      0.0933   1415.3833    703.0000     49.5876
           16          16      0.5000      0.1000   1416.1048    703.0000     49.6286
           16          17      0.5000      0.1067   1416.8199    703.0000     49.6693
           16          18      0.5000      0.1133   1417.5286    703.0000     49.7097
           16          19      0.5000      0.1200   1418.2310    703.0000     49.7498
           16          20      0.5000      0.1267   1418.9272    703.0000     49.7896
           16          21      0.5000      0.1333   1419.6173    703.0000     49.8291
           16          22      0.5000      0.1400   1420.3015    703.0000     49.8683
           16          23      0.5000      0.1467   1420.9798    703.0000     49.9073
           16          24      0.5000      0.1533   1421.6525    703.0000     49.9460
           16          25      0.5000      0.1600   1422.3198    703.0000     49.9844
           16          26      0.5000      0.1667   1422.9819    703.0000     50.0226
           16          27      0.5000      0.1733   1423.6390    703.0000     50.0605
           16          28      0.5000      0.1800   1424.2913    703.0000     50.0983
           16          29      0.5000      0.1867   1424.9391    703.0000     50.1358
           16          30      0.5000      0.1933   1425.5828    703.0000     50.1731
           16          31      0.5000      0.2000   1426.2224    703.0000     50.2102
           17           1      0.5333      0.0000   1404.6144    703.0000     48.9834
           17           2      0.5333      0.0067   1405.4189    703.0000     49.0280
           17           3      0.5333      0.0133   1406.2186    703.0000     49.0725
           17           4      0.5333      0.0200   1407.0131    703.0000     49.1167
           17           5      0.5333      0.0267   1407.8022    703.0000     49.1607
           17           6      0.5333      0.0333   1408.5858    703.0000     49.2045
           17           7      0.5333      0.0400   1409.3636    703.0000     49.2481
           17           8      0.5333      0.0467   1410.1356    703.0000     49.2914
           17           9      0.5333      0.0533   1410.9015    703.0000     49.3344
           17          10      0.5333      0.0600   1411.6613    703.0000     49.3771
           17          11      0.5333      0.0667   1412.4148    703.0000     49.4196
           17          12      0.5333      0.0733   1413.1620    703.0000     49.4618
           17          13      0.5333      0.0800   1413.9028    703.0000     49.5037
           17          14      0.5333      0.0867   1414.6372    703.0000     49.5453
           17          15      0.5333      0.0933   1415.3652    703.0000     49.5866
           17          16      0.5333      0.1000   1416.0868    703.0000     49.6276
           17          17      0.5333      0.1067   1416.8020    703.0000     49.6683
           17          18      0.5333      0.1133   1417.5109    703.0000     49.7087
           17          19      0.5333      0.1200   1418.2135    703.0000     49.7488
           17          20      0.5333      0.1267   1418.9100    703.0000     49.7886
           17          21      0.5333      0.1333   1419.6005    703.0000     49.8281
           17          22      0.5333      0.1400   1420.2851    703.0000     49.8674
           17          23      0.5333      0.1467   1420.9639    703.0000     49.9064
           17          24      0.5333      0.1533   1421.6372    703.0000     49.9451
           17          25      0.5333      0.1600   1422.3051    703.0000     49.9836
           17          26      0.5333      0.1667   1422.9678    703.0000     50.0218
           17          27      0.5333      0.1733   1423.6256    703.0000     50.0598
           17          28      0.5333      0.1800   1424.2787    703.0000     50.0975
           17          29      0.5333      0.1867   1424.9274    703.0000     50.1351
           17          30      0.5333      0.1933   1425.5719    703.0000     50.1725
           17          31      0.5333      0.2000   1426.2125    703.0000     50.2097
           18           1      0.5667      0.0000   1404.5778    703.0000     48.9814
           18           2      0.5667      0.0067   1405.3798    703.0000     49.0259
           18           3      0.5667      0.0133   1406.1771    703.0000     49.0702
           18           4      0.5667      0.0200   1406.9694    703.0000     49.1143
           18           5      0.5667      0.0267   1407.7565    703.0000     49.1582
           18           6      0.5667      0.0333   1408.5382    703.0000     49.2019
           18           7      0.5667      0.0400   1409.3144    703.0000     49.2453
           18           8      0.5667      0.0467   1410.0849    703.0000     49.2885
           18           9      0.5667      0.0533   1410.8495    703.0000     49.3315
           18          10      0.5667      0.0600   1411.6082    703.0000     49.3741
           18          11      0.5667      0.0667   1412.3608    703.0000     49.4166
           18          12      0.5667      0.0733   1413.1073    703.0000     49.4587
           18          13      0.5667      0.0800   1413.8476    703.0000     49.5006
           18          14      0.5667      0.0867   1414.5817    703.0000     49.5421
           18          15      0.5667      0.0933   1415.3096    703.0000     49.5834
           18          16      0.5667      0.1000   1416.0313    703.0000     49.6244
           18          17      0.5667      0.1067   1416.7469    703.0000     49.6651
           18          18      0.5667      0.1133   1417.4563    703.0000     49.7056
           18          19      0.5667      0.1200   1418.1597    703.0000     49.7457
           18          20      0.5667      0.1267   1418.8571    703.0000     49.7856
           18          21      0.5667      0.1333   1419.5487    703.0000     49.8252
           18          22      0.5667      0.1400   1420.2347    703.0000     49.8645
           18          23      0.5667      0.1467   1420.9150    703.0000     49.9036
           18          24      0.5667      0.1533   1421.5900    703.0000     49.9424
           18          25      0.5667      0.1600   1422.2598    703.0000     49.9809
           18          26      0.5667      0.1667   1422.9246    703.0000     50.0193
           18          27      0.5667      0.1733   1423.5846    703.0000     50.0574
           18          28      0.5667      0.1800   1424.2401    703.0000     50.0953
           18          29      0.5667      0.1867   1424.8913    703.0000     50.1330
           18          30      0.5667      0.1933   1425.5384    703.0000     50.1705
           18          31      0.5667      0.2000   1426.1818    703.0000     50.2079
           19           1      0.6000      0.0000   1404.5141    703.0000     48.9778
           19           2      0.6000      0.0067   1405.3117    703.0000     49.0221
           19           3      0.6000      0.0133   1406.1049    703.0000     49.0662
           19           4      0.6000      0.0200   1406.8933    703.0000     49.1100
           19           5      0.6000      0.0267   1407.6769    703.0000     49.1537
           19           6      0.6000      0.0333   1408.4554    703.0000     49.1972
           19           7      0.6000      0.0400   1409.2286    703.0000     49.2405
           19           8      0.6000      0.0467   1409.9965    703.0000     49.2836
           19           9      0.6000      0.0533   1410.7588    703.0000     49.3264
           19          10      0.6000      0.0600   1411.5156    703.0000     49.3689
           19          11      0.6000      0.0667   1412.2666    703.0000     49.4112
           19          12      0.6000      0.0733   1413.0118    703.0000     49.4533
           19          13      0.6000      0.0800   1413.7513    703.0000     49.4951
           19          14      0.6000      0.0867   1414.4849    703.0000     49.5366
           19          15      0.6000      0.0933   1415.2126    703.0000     49.5779
           19          16      0.6000      0.1000   1415.9345    703.0000     49.6189
           19          17      0.6000      0.1067   1416.6507    703.0000     49.6597
           19          18      0.6000      0.1133   1417.3610    703.0000     49.7001
           19          19      0.6000      0.1200   1418.0657    703.0000     49.7403
           19          20      0.6000      0.1267   1418.7648    703.0000     49.7803
           19          21      0.6000      0.1333   1419.4584    703.0000     49.8200
           19          22      0.6000      0.1400   1420.1466    703.0000     49.8594
           19          23      0.6000      0.1467   1420.8297    703.0000     49.8987
           19          24      0.6000      0.1533   1421.5076    703.0000     49.9376
           19          25      0.6000      0.1600   1422.1807    703.0000     49.9764
           19          26      0.6000      0.1667   1422.8491    703.0000     50.0149
           19          27      0.6000      0.1733   1423.5130    703.0000     50.0533
           19          28      0.6000      0.1800   1424.1726    703.0000     50.0914
           19          29      0.6000      0.1867   1424.8282    703.0000     50.1293
           19          30      0.6000      0.1933   1425.4800    703.0000     50.1671
           19          31      0.6000      0.2000   1426.1282    703.0000     50.2048
           20           1      0.6333      0.0000   1404.4187    703.0000     48.9725
           20           2      0.6333      0.0067   1405.2099    703.0000     49.0164
           20           3      0.6333      0.0133   1405.9969    703.0000     49.0601
           20           4      0.6333      0.0200   1406.7796    703.0000     49.1037
           20           5      0.6333      0.0267   1407.5579    703.0000     49.1471
           20           6      0.6333      0.0333   1408.3315    703.0000     49.1903
           20           7      0.6333      0.0400   1409.1003    703.0000     49.2333
           20           8      0.6333      0.0467   1409.8643    703.0000     49.2761
           20           9      0.6333      0.0533   1410.6232    703.0000     49.3187
           20          10      0.6333      0.0600   1411.3770    703.0000     49.3611
           20          11      0.6333      0.0667   1412.1256    703.0000     49.4033
           20          12      0.6333      0.0733   1412.8690    703.0000     49.4452
           20          13      0.6333      0.0800   1413.6071    703.0000     49.4869
           20          14      0.6333      0.0867   1414.3399    703.0000     49.5284
           20          15      0.6333      0.0933   1415.0674    703.0000     49.5697
           20          16      0.6333      0.1000   1415.7896    703.0000     49.6107
           20          17      0.6333      0.1067   1416.5065    703.0000     49.6514
           20          18      0.6333      0.1133   1417.2183    703.0000     49.6920
           20          19      0.6333      0.1200   1417.9248    703.0000     49.7323
           20          20      0.6333      0.1267   1418.6264    703.0000     49.7724
           20          21      0.6333      0.1333   1419.3229    703.0000     49.8122
           20          22      0.6333      0.1400   1420.0146    703.0000     49.8519
           20          23      0.6333      0.1467   1420.7016    703.0000     49.8913
           20          24      0.6333      0.1533   1421.3841    703.0000     49.9305
           20          25      0.6333      0.1600   1422.0621    703.0000     49.9696
           20          26      0.6333      0.1667   1422.7358    703.0000     50.0084
           20          27      0.6333      0.1733   1423.4055    703.0000     50.0470
           20          28      0.6333      0.1800   1424.0714    703.0000     50.0855
           20          29      0.6333      0.1867   1424.7335    703.0000     50.1239
           20          30      0.6333      0.1933   1425.3922    703.0000     50.1620
           20          31      0.6333      0.2000   1426.0477    703.0000     50.2001
           21           1      0.6667      0.0000   1404.2853    703.0000     48.9652
           21           2      0.6667      0.0067   1405.0673    703.0000     49.0085
           21           3      0.6667      0.0133   1405.8457    703.0000     49.0517
           21           4      0.6667      0.0200   1406.6204    703.0000     49.0948
           21           5      0.6667      0.0267   1407.3912    703.0000     49.1378
           21           6      0.6667      0.0333   1408.1580    703.0000     49.1806
           21           7      0.6667      0.0400   1408.9207    703.0000     49.2233
           21           8      0.6667      0.0467   1409.6791    703.0000     49.2657
           21           9      0.6667      0.0533   1410.4331    703.0000     49.3081
           21          10      0.6667      0.0600   1411.1828    703.0000     49.3502
           21          11      0.6667      0.0667   1411.9280    703.0000     49.3922
           21          12      0.6667      0.0733   1412.6687    703.0000     49.4339
           21          13      0.6667      0.0800   1413.4048    703.0000     49.4755
           21          14      0.6667      0.0867   1414.1365    703.0000     49.5169
           21          15      0.6667      0.0933   1414.8635    703.0000     49.5581
           21          16      0.6667      0.1000   1415.5860    703.0000     49.5991
           21          17      0.6667      0.1067   1416.3041    703.0000     49.6399
           21          18      0.6667      0.1133   1417.0177    703.0000     49.6806
           21          19      0.6667      0.1200   1417.7269    703.0000     49.7210
           21          20      0.6667      0.1267   1418.4318    703.0000     49.7613
           21          21      0.6667      0.1333   1419.1324    703.0000     49.8013
           21          22      0.6667      0.1400   1419.8290    703.0000     49.8412
           21          23      0.6667      0.1467   1420.5215    703.0000     49.8810
           21          24      0.6667      0.1533   1421.2102    703.0000     49.9205
           21          25      0.6667      0.1600   1421.8951    703.0000     49.9599
           21          26      0.6667      0.1667   1422.5763    703.0000     49.9992
           21          27      0.6667      0.1733   1423.2542    703.0000     50.0383
           21          28      0.6667      0.1800   1423.9287    703.0000     50.0773
           21          29      0.6667      0.1867   1424.6002    703.0000     50.1161
           21          30      0.6667      0.1933   1425.2686    703.0000     50.1549
           21          31      0.6667      0.2000   1425.9344    703.0000     50.1935
           22           1      0.7000      0.0000   1404.1047    703.0000     48.9552
           22           2      0.7000      0.0067   1404.8743    703.0000     48.9978
           22           3      0.7000      0.0133   1405.6411    703.0000     49.0404
           22           4      0.7000      0.0200   1406.4048    703.0000     49.0828
           22           5      0.7000      0.0267   1407.1655    703.0000     49.1252
           22           6      0.7000      0.0333   1407.9230    703.0000     49.1675
           22           7      0.7000      0.0400   1408.6771    703.0000     49.2096
           22           8      0.7000      0.0467   1409.4280    703.0000     49.2517
           22           9      0.7000      0.0533   1410.1754    703.0000     49.2936
           22          10      0.7000      0.0600   1410.9193    703.0000     49.3354
           22          11      0.7000      0.0667   1411.6597    703.0000     49.3770
           22          12      0.7000      0.0733   1412.3967    703.0000     49.4186
           22          13      0.7000      0.0800   1413.1300    703.0000     49.4600
           22          14      0.7000      0.0867   1413.8599    703.0000     49.5012
           22          15      0.7000      0.0933   1414.5862    703.0000     49.5424
           22          16      0.7000      0.1000   1415.3091    703.0000     49.5834
           22          17      0.7000      0.1067   1416.0285    703.0000     49.6243
           22          18      0.7000      0.1133   1416.7445    703.0000     49.6650
           22          19      0.7000      0.1200   1417.4571    703.0000     49.7056
           22          20      0.7000      0.1267   1418.1665    703.0000     49.7461
           22          21      0.7000      0.1333   1418.8726    703.0000     49.7865
           22          22      0.7000      0.1400   1419.5756    703.0000     49.8267
           22          23      0.7000      0.1467   1420.2756    703.0000     49.8668
           22          24      0.7000      0.1533   1420.9727    703.0000     49.9069
           22          25      0.7000      0.1600   1421.6669    703.0000     49.9468
           22          26      0.7000      0.1667   1422.3584    703.0000     49.9866
           22          27      0.7000      0.1733   1423.0473    703.0000     50.0264
           22          28      0.7000      0.1800   1423.7337    703.0000     50.0660
           22          29      0.7000      0.1867   1424.4178    703.0000     50.1056
           22          30      0.7000      0.1933   1425.0996    703.0000     50.1451
           22          31      0.7000      0.2000   1425.7794    703.0000     50.1845
           23           1      0.7333      0.0000   1403.8645    703.0000     48.9419
           23           2      0.7333      0.0067   1404.6177    703.0000     48.9836
           23           3      0.7333      0.0133   1405.3689    703.0000     49.0252
           23           4      0.7333      0.0200   1406.1181    703.0000     49.0669
           23           5      0.7333      0.0267   1406.8651    703.0000     49.1085
           23           6      0.7333      0.0333   1407.6101    703.0000     49.1500
           23           7      0.7333      0.0400   1408.3528    703.0000     49.1915
           23           8      0.7333      0.0467   1409.0934    703.0000     49.2329
           23           9      0.7333      0.0533   1409.8317    703.0000     49.2743
           23          10      0.7333      0.0600   1410.5678    703.0000     49.3156
           23          11      0.7333      0.0667   1411.3017    703.0000     49.3569
           23          12      0.7333      0.0733   1412.0333    703.0000     49.3981
           23          13      0.7333      0.0800   1412.7628    703.0000     49.4392
           23          14      0.7333      0.0867   1413.4900    703.0000     49.4803
           23          15      0.7333      0.0933   1414.2151    703.0000     49.5214
           23          16      0.7333      0.1000   1414.9381    703.0000     49.5623
           23          17      0.7333      0.1067   1415.6591    703.0000     49.6033
           23          18      0.7333      0.1133   1416.3780    703.0000     49.6441
           23          19      0.7333      0.1200   1417.0950    703.0000     49.6850
           23          20      0.7333      0.1267   1417.8101    703.0000     49.7257
           23          21      0.7333      0.1333   1418.5233    703.0000     49.7665
           23          22      0.7333      0.1400   1419.2348    703.0000     49.8072
           23          23      0.7333      0.1467   1419.9446    703.0000     49.8479
           23          24      0.7333      0.1533   1420.6528    703.0000     49.8885
           23          25      0.7333      0.1600   1421.3594    703.0000     49.9291
           23          26      0.7333      0.1667   1422.0646    703.0000     49.9697
           23          27      0.7333      0.1733   1422.7683    703.0000     50.0103
           23          28      0.7333      0.1800   1423.4706    703.0000     50.0508
           23          29      0.7333      0.1867   1424.1717    703.0000     50.0913
           23          30      0.7333      0.1933   1424.8715    703.0000     50.1319
           23          31      0.7333      0.2000   1425.5701    703.0000     50.1724
           24           1      0.7667      0.0000   1403.5489    703.0000     48.9244
           24           2      0.7667      0.0067   1404.2804    703.0000     48.9649
           24           3      0.7667      0.0133   1405.0110    703.0000     49.0054
           24           4      0.7667      0.0200   1405.7409    703.0000     49.0459
           24           5      0.7667      0.0267   1406.4699    703.0000     49.0865
           24           6      0.7667      0.0333   1407.1981    703.0000     49.1270
           24           7      0.7667      0.0400   1407.9256    703.0000     49.1676
           24           8      0.7667      0.0467   1408.6523    703.0000     49.2082
           24           9      0.7667      0.0533   1409.3783    703.0000     49.2489
           24          10      0.7667      0.0600   1410.1036    703.0000     49.2896
           24          11      0.7667      0.0667   1410.8283    703.0000     49.3303
           24          12      0.7667      0.0733   1411.5525    703.0000     49.3710
           24          13      0.7667      0.0800   1412.2762    703.0000     49.4118
           24          14      0.7667      0.0867   1412.9995    703.0000     49.4526
           24          15      0.7667      0.0933   1413.7224    703.0000     49.4935
           24          16      0.7667      0.1000   1414.4450    703.0000     49.5344
           24          17      0.7667      0.1067   1415.1674    703.0000     49.5753
           24          18      0.7667      0.1133   1415.8897    703.0000     49.6164
           24          19      0.7667      0.1200   1416.6119    703.0000     49.6575
           24          20      0.7667      0.1267   1417.3342    703.0000     49.6986
           24          21      0.7667      0.1333   1418.0564    703.0000     49.7398
           24          22      0.7667      0.1400   1418.7788    703.0000     49.7811
           24          23      0.7667      0.1467   1419.5013    703.0000     49.8225
           24          24      0.7667      0.1533   1420.2240    703.0000     49.8639
           24          25      0.7667      0.1600   1420.9469    703.0000     49.9054
           24          26      0.7667      0.1667   1421.6700    703.0000     49.9470
           24          27      0.7667      0.1733   1422.3933    703.0000     49.9886
           24          28      0.7667      0.1800   1423.1169    703.0000     50.0304
           24          29      0.7667      0.1867   1423.8407    703.0000     50.0722
           24          30      0.7667      0.1933   1424.5646    703.0000     50.1141
           24          31      0.7667      0.2000   1425.2886    703.0000     50.1560
           25           1      0.8000      0.0000   1403.1374    703.0000     48.9017
           25           2      0.8000      0.0067   1403.8406    703.0000     48.9405
           25           3      0.8000      0.0133   1404.5444    703.0000     48.9795
           25           4      0.8000      0.0200   1405.2488    703.0000     49.0186
           25           5      0.8000      0.0267   1405.9539    703.0000     49.0578
           25           6      0.8000      0.0333   1406.6598    703.0000     49.0970
           25           7      0.8000      0.0400   1407.3667    703.0000     49.1364
           25           8      0.8000      0.0467   1408.0747    703.0000     49.1760
           25           9      0.8000      0.0533   1408.7838    703.0000     49.2156
           25          10      0.8000      0.0600   1409.4942    703.0000     49.2554
           25          11      0.8000      0.0667   1410.2060    703.0000     49.2953
           25          12      0.8000      0.0733   1410.9195    703.0000     49.3354
           25          13      0.8000      0.0800   1411.6346    703.0000     49.3756
           25          14      0.8000      0.0867   1412.3515    703.0000     49.4160
           25          15      0.8000      0.0933   1413.0705    703.0000     49.4566
           25          16      0.8000      0.1000   1413.7915    703.0000     49.4974
           25          17      0.8000      0.1067   1414.5148    703.0000     49.5383
           25          18      0.8000      0.1133   1415.2404    703.0000     49.5795
           25          19      0.8000      0.1200   1415.9685    703.0000     49.6208
           25          20      0.8000      0.1267   1416.6991    703.0000     49.6624
           25          21      0.8000      0.1333   1417.4324    703.0000     49.7042
           25          22      0.8000      0.1400   1418.1683    703.0000     49.7462
           25          23      0.8000      0.1467   1418.9069    703.0000     49.7884
           25          24      0.8000      0.1533   1419.6482    703.0000     49.8309
           25          25      0.8000      0.1600   1420.3922    703.0000     49.8735
           25          26      0.8000      0.1667   1421.1389    703.0000     49.9164
           25          27      0.8000      0.1733   1421.8882    703.0000     49.9595
           25          28      0.8000      0.1800   1422.6399    703.0000     50.0029
           25          29      0.8000      0.1867   1423.3940    703.0000     50.0464
           25          30      0.8000      0.1933   1424.1503    703.0000     50.0901
           25          31      0.8000      0.2000   1424.9086    703.0000     50.1340
           26           1      0.8333      0.0000   1402.6055    703.0000     48.8723
           26           2      0.8333      0.0067   1403.2720    703.0000     48.9091
           26           3      0.8333      0.0133   1403.9407    703.0000     48.9461
           26           4      0.8333      0.0200   1404.6117    703.0000     48.9832
           26           5      0.8333      0.0267   1405.2852    703.0000     49.0206
           26           6      0.8333      0.0333   1405.9614    703.0000     49.0582
           26           7      0.8333      0.0400   1406.6406    703.0000     49.0960
           26           8      0.8333      0.0467   1407.3230    703.0000     49.1340
           26           9      0.8333      0.0533   1408.0088    703.0000     49.1723
           26          10      0.8333      0.0600   1408.6982    703.0000     49.2108
           26          11      0.8333      0.0667   1409.3916    703.0000     49.2496
           26          12      0.8333      0.0733   1410.0891    703.0000     49.2887
           26          13      0.8333      0.0800   1410.7911    703.0000     49.3282
           26          14      0.8333      0.0867   1411.4977    703.0000     49.3679
           26          15      0.8333      0.0933   1412.2093    703.0000     49.4080
           26          16      0.8333      0.1000   1412.9261    703.0000     49.4485
           26          17      0.8333      0.1067   1413.6483    703.0000     49.4893
           26          18      0.8333      0.1133   1414.3761    703.0000     49.5305
           26          19      0.8333      0.1200   1415.1098    703.0000     49.5721
           26          20      0.8333      0.1267   1415.8494    703.0000     49.6141
           26          21      0.8333      0.1333   1416.5952    703.0000     49.6565
           26          22      0.8333      0.1400   1417.3473    703.0000     49.6993
           26          23      0.8333      0.1467   1418.1057    703.0000     49.7426
           26          24      0.8333      0.1533   1418.8704    703.0000     49.7863
           26          25      0.8333      0.1600   1419.6414    703.0000     49.8305
           26          26      0.8333      0.1667   1420.4186    703.0000     49.8751
           26          27      0.8333      0.1733   1421.2019    703.0000     49.9201
           26          28      0.8333      0.1800   1421.9911    703.0000     49.9655
           26          29      0.8333      0.1867   1422.7858    703.0000     50.0113
           26          30      0.8333      0.1933   1423.5858    703.0000     50.0575
           26          31      0.8333      0.2000   1424.3906    703.0000     50.1040
           27           1      0.8667      0.0000   1401.9248    703.0000     48.8348
           27           2      0.8667      0.0067   1402.5442    703.0000     48.8689
           27           3      0.8667      0.0133   1403.1675    703.0000     48.9033
           27           4      0.8667      0.0200   1403.7949    703.0000     48.9380
           27           5      0.8667      0.0267   1404.4267    703.0000     48.9730
           27           6      0.8667      0.0333   1405.0633    703.0000     49.0083
           27           7      0.8667      0.0400   1405.7050    703.0000     49.0439
           27           8      0.8667      0.0467   1406.3523    703.0000     49.0799
           27           9      0.8667      0.0533   1407.0055    703.0000     49.1163
           27          10      0.8667      0.0600   1407.6650    703.0000     49.1531
           27          11      0.8667      0.0667   1408.3313    703.0000     49.1903
           27          12      0.8667      0.0733   1409.0047    703.0000     49.2280
           27          13      0.8667      0.0800   1409.6859    703.0000     49.2661
           27          14      0.8667      0.0867   1410.3751    703.0000     49.3048
           27          15      0.8667      0.0933   1411.0730    703.0000     49.3440
           27          16      0.8667      0.1000   1411.7798    703.0000     49.3838
           27          17      0.8667      0.1067   1412.4962    703.0000     49.4242
           27          18      0.8667      0.1133   1413.2225    703.0000     49.4652
           27          19      0.8667      0.1200   1413.9591    703.0000     49.5069
           27          20      0.8667      0.1267   1414.7064    703.0000     49.5492
           27          21      0.8667      0.1333   1415.4647    703.0000     49.5922
           27          22      0.8667      0.1400   1416.2344    703.0000     49.6360
           27          23      0.8667      0.1467   1417.0155    703.0000     49.6804
           27          24      0.8667      0.1533   1417.8084    703.0000     49.7257
           27          25      0.8667      0.1600   1418.6129    703.0000     49.7716
           27          26      0.8667      0.1667   1419.4290    703.0000     49.8183
           27          27      0.8667      0.1733   1420.2566    703.0000     49.8658
           27          28      0.8667      0.1800   1421.0953    703.0000     49.9139
           27          29      0.8667      0.1867   1421.9448    703.0000     49.9628
           27          30      0.8667      0.1933   1422.8043    703.0000     50.0123
           27          31      0.8667      0.2000   1423.6734    703.0000     50.0625
           28           1      0.9000      0.0000   1401.0660    703.0000     48.7875
           28           2      0.9000      0.0067   1401.6257    703.0000     48.8183
           28           3      0.9000      0.0133   1402.1908    703.0000     48.8494
           28           4      0.9000      0.0200   1402.7617    703.0000     48.8809
           28           5      0.9000      0.0267   1403.3388    703.0000     48.9128
           28           6      0.9000      0.0333   1403.9226    703.0000     48.9451
           28           7      0.9000      0.0400   1404.5137    703.0000     48.9778
           28           8      0.9000      0.0467   1405.1126    703.0000     49.0110
           28           9      0.9000      0.0533   1405.7198    703.0000     49.0447
           28          10      0.9000      0.0600   1406.3361    703.0000     49.0790
           28          11      0.9000      0.0667   1406.9620    703.0000     49.1139
           28          12      0.9000      0.0733   1407.5984    703.0000     49.1494
           28          13      0.9000      0.0800   1408.2459    703.0000     49.1855
           28          14      0.9000      0.0867   1408.9053    703.0000     49.2224
           28          15      0.9000      0.0933   1409.5775    703.0000     49.2601
           28          16      0.9000      0.1000   1410.2632    703.0000     49.2985
           28          17      0.9000      0.1067   1410.9633    703.0000     49.3379
           28          18      0.9000      0.1133   1411.6787    703.0000     49.3781
           28          19      0.9000      0.1200   1412.4101    703.0000     49.4193
           28          20      0.9000      0.1267   1413.1585    703.0000     49.4616
           28          21      0.9000      0.1333   1413.9246    703.0000     49.5049
           28          22      0.9000      0.1400   1414.7091    703.0000     49.5493
           28          23      0.9000      0.1467   1415.5127    703.0000     49.5949
           28          24      0.9000      0.1533   1416.3359    703.0000     49.6417
           28          25      0.9000      0.1600   1417.1791    703.0000     49.6898
           28          26      0.9000      0.1667   1418.0426    703.0000     49.7390
           28          27      0.9000      0.1733   1418.9263    703.0000     49.7895
           28          28      0.9000      0.1800   1419.8301    703.0000     49.8413
           28          29      0.9000      0.1867   1420.7533    703.0000     49.8943
           28          30      0.9000      0.1933   1421.6953    703.0000     49.9484
           28          31      0.9000      0.2000   1422.6548    703.0000     50.0037
           29           1      0.9333      0.0000   1400.0039    703.0000     48.7292
           29           2      0.9333      0.0067   1400.4894    703.0000     48.7558
           29           3      0.9333      0.0133   1400.9813    703.0000     48.7828
           29           4      0.9333      0.0200   1401.4801    703.0000     48.8103
           29           5      0.9333      0.0267   1401.9863    703.0000     48.8381
           29           6      0.9333      0.0333   1402.5005    703.0000     48.8665
           29           7      0.9333      0.0400   1403.0235    703.0000     48.8954
           29           8      0.9333      0.0467   1403.5559    703.0000     48.9248
           29           9      0.9333      0.0533   1404.0985    703.0000     48.9548
           29          10      0.9333      0.0600   1404.6522    703.0000     48.9855
           29          11      0.9333      0.0667   1405.2180    703.0000     49.0169
           29          12      0.9333      0.0733   1405.7969    703.0000     49.0490
           29          13      0.9333      0.0800   1406.3900    703.0000     49.0820
           29          14      0.9333      0.0867   1406.9984    703.0000     49.1159
           29          15      0.9333      0.0933   1407.6235    703.0000     49.1508
           29          16      0.9333      0.1000   1408.2667    703.0000     49.1867
           29          17      0.9333      0.1067   1408.9293    703.0000     49.2237
           29          18      0.9333      0.1133   1409.6131    703.0000     49.2620
           29          19      0.9333      0.1200   1410.3195    703.0000     49.3017
           29          20      0.9333      0.1267   1411.0503    703.0000     49.3427
           29          21      0.9333      0.1333   1411.8073    703.0000     49.3854
           29          22      0.9333      0.1400   1412.5922    703.0000     49.4296
           29          23      0.9333      0.1467   1413.4069    703.0000     49.4756
           29          24      0.9333      0.1533   1414.2530    703.0000     49.5235
           29          25      0.9333      0.1600   1415.1321    703.0000     49.5733
           29          26      0.9333      0.1667   1416.0457    703.0000     49.6252
           29          27      0.9333      0.1733   1416.9948    703.0000     49.6793
           29          28      0.9333      0.1800   1417.9801    703.0000     49.7355
           29          29      0.9333      0.1867   1419.0017    703.0000     49.7938
           29          30      0.9333      0.1933   1420.0588    703.0000     49.8544
           29          31      0.9333      0.2000   1421.1498    703.0000     49.9171
           30           1      0.9667      0.0000   1398.7256    703.0000     48.6591
           30           2      0.9667      0.0067   1399.1212    703.0000     48.6808
           30           3      0.9667      0.0133   1399.5231    703.0000     48.7028
           30           4      0.9667      0.0200   1399.9320    703.0000     48.7252
           30           5      0.9667      0.0267   1400.3484    703.0000     48.7481
           30           6      0.9667      0.0333   1400.7729    703.0000     48.7714
           30           7      0.9667      0.0400   1401.2062    703.0000     48.7952
           30           8      0.9667      0.0467   1401.6493    703.0000     48.8196
           30           9      0.9667      0.0533   1402.1029    703.0000     48.8446
           30          10      0.9667      0.0600   1402.5681    703.0000     48.8702
           30          11      0.9667      0.0667   1403.0460    703.0000     48.8966
           30          12      0.9667      0.0733   1403.5378    703.0000     48.9238
           30          13      0.9667      0.0800   1404.0449    703.0000     48.9518
           30          14      0.9667      0.0867   1404.5690    703.0000     48.9809
           30          15      0.9667      0.0933   1405.1116    703.0000     49.0110
           30          16      0.9667      0.1000   1405.6749    703.0000     49.0422
           30          17      0.9667      0.1067   1406.2608    703.0000     49.0748
           30          18      0.9667      0.1133   1406.8718    703.0000     49.1088
           30          19      0.9667      0.1200   1407.5107    703.0000     49.1445
           30          20      0.9667      0.1267   1408.1804    703.0000     49.1819
           30          21      0.9667      0.1333   1408.8842    703.0000     49.2212
           30          22      0.9667      0.1400   1409.6260    703.0000     49.2628
           30          23      0.9667      0.1467   1410.4097    703.0000     49.3067
           30          24      0.9667      0.1533   1411.2400    703.0000     49.3534
           30          25      0.9667      0.1600   1412.1216    703.0000     49.4031
           30          26      0.9667      0.1667   1413.0598    703.0000     49.4560
           30          27      0.9667      0.1733   1414.0600    703.0000     49.5126
           30          28      0.9667      0.1800   1415.1273    703.0000     49.5731
           30          29      0.9667      0.1867   1416.2665    703.0000     49.6378
           30          30      0.9667      0.1933   1417.4810    703.0000     49.7070
           30          31      0.9667      0.2000   1418.7718    703.0000     49.7807
           31           1      1.0000      0.0000   1397.2444    703.0000     48.5783
           31           2      1.0000      0.0067   1397.5351    703.0000     48.5941
           31           3      1.0000      0.0133   1397.8308    703.0000     48.6103
           31           4      1.0000      0.0200   1398.1321    703.0000     48.6267
           31           5      1.0000      0.0267   1398.4393    703.0000     48.6435
           31           6      1.0000      0.0333   1398.7530    703.0000     48.6606
           31           7      1.0000      0.0400   1399.0738    703.0000     48.6782
           31           8      1.0000      0.0467   1399.4023    703.0000     48.6962
           31           9      1.0000      0.0533   1399.7394    703.0000     48.7147
           31          10      1.0000      0.0600   1400.0858    703.0000     48.7336
           31          11      1.0000      0.0667   1400.4425    703.0000     48.7532
           31          12      1.0000      0.0733   1400.8106    703.0000     48.7734
           31          13      1.0000      0.0800   1401.1914    703.0000     48.7944
           31          14      1.0000      0.0867   1401.5863    703.0000     48.8161
           31          15      1.0000      0.0933   1401.9969    703.0000     48.8387
           31          16      1.0000      0.1000   1402.4250    703.0000     48.8623
           31          17      1.0000      0.1067   1402.8728    703.0000     48.8870
           31          18      1.0000      0.1133   1403.3429    703.0000     48.9130
           31          19      1.0000      0.1200   1403.8382    703.0000     48.9404
           31          20      1.0000      0.1267   1404.3623    703.0000     48.9694
           31          21      1.0000      0.1333   1404.9192    703.0000     49.0003
           31          22      1.0000      0.1400   1405.5143    703.0000     49.0333
           31          23      1.0000      0.1467   1406.1537    703.0000     49.0689
           31          24      1.0000      0.1533   1406.8452    703.0000     49.1074
           31          25      1.0000      0.1600   1407.5988    703.0000     49.1494
           31          26      1.0000      0.1667   1408.4268    703.0000     49.1956
           31          27      1.0000      0.1733   1409.3455    703.0000     49.2471
           31          28      1.0000      0.1800   1410.3761    703.0000     49.3049
           31          29      1.0000      0.1867   1411.5467    703.0000     49.3707
           31          30      1.0000      0.1933   1412.8949    703.0000     49.4467
           31          31      1.0000      0.2000   1414.4718    703.0000     49.5359
