 ====================================================================================
               Transient state solution for a 2D rectangular plate
                    for applications in steel reheating
                 e.g. Reheating furnaces for rolling processing
 ====================================================================================
 Author: Dickson Alves de Souza

 Based on lectures by professor Roberto Parreiras Tavares

 and book Numerical Heat Transfer and Fluid Flow
 by Suhas V. Patankar (1980)

 Federal University of Minas Gerais (UFMG)
 October 26th, 2017
 ====================================================================================
                              Input parameters:

 Lenght in X direction (meters):           1.0000
 Lenght in Y direction (meters):           0.2000
 Nodes in X direction:                         31
 Nodes in Y direction:                         31
 ====================================================================================

                       STAGE                1/  5
                       START Time:         0.0000
                       END Time:        1140.0000
                       Iterations:              524

 ====================================================================================
 Temperature of fluid at left face (T left):             1223.1500
 Temperature of fluid at right face (T right):           1223.1500
 Temperature of fluid at bottom face (T bottom):         1223.1500
 Temperature of fluid at top face (T top):               1223.1500
 ------------------------------------------------------------------------------------
 Heat transfer coefficient at left face (H left):          50.0000
 Heat transfer coefficient at right face (H right):        50.0000
 Heat transfer coefficient at bottom face (H bottom):       8.0000
 Heat transfer coefficient at top face (H top):           150.0000
 ====================================================================================


 ====================================================================================

                       STAGE                2/  5
                       START Time:      1140.0000
                       END Time:        3060.0000
                       Iterations:              524

 ====================================================================================
 Temperature of fluid at left face (T left):             1423.1500
 Temperature of fluid at right face (T right):           1423.1500
 Temperature of fluid at bottom face (T bottom):         1423.1500
 Temperature of fluid at top face (T top):               1423.1500
 ------------------------------------------------------------------------------------
 Heat transfer coefficient at left face (H left):          50.0000
 Heat transfer coefficient at right face (H right):        50.0000
 Heat transfer coefficient at bottom face (H bottom):       8.0000
 Heat transfer coefficient at top face (H top):           150.0000
 ====================================================================================


 SOLUTION of LINEAR SYSTEM: TDMA (tri-diagonal matrix algorithm)
      ADI approach employed in solution.
 Tolerance:       0.0010

 ====================================================================================
                    Calculation Results
 Current time:    2540.0000000000000       seconds
 Maximum Temperature :    1327.5232841490918
 Minimum Temperature :    951.85058745938545
 Average(algebraic, non-weigthed) Temperature :    1069.8171204622179
 ====================================================================================
            I           J        X(m)        Y(m)        T(K)  Cp(J/kg.K) K(W/sq-m.K)
 ====================================================================================
            1           1      0.0000      0.0000   1304.5091    703.0000     44.0939
            1           2      0.0000      0.0067   1296.0889    703.0000     43.7453
            1           3      0.0000      0.0133   1288.1059    703.0000     43.4242
            1           4      0.0000      0.0200   1280.5982    703.0000     43.1304
            1           5      0.0000      0.0267   1273.6049    703.0000     42.8641
            1           6      0.0000      0.0333   1267.1648    703.0000     42.6252
            1           7      0.0000      0.0400   1261.3162    703.0000     42.4134
            1           8      0.0000      0.0467   1256.0961    703.0000     42.2285
            1           9      0.0000      0.0533   1251.5391    703.0000     42.0704
            1          10      0.0000      0.0600   1247.6794    703.0000     41.9389
            1          11      0.0000      0.0667   1244.5473    703.0000     41.8338
            1          12      0.0000      0.0733   1242.1676    703.0000     41.7549
            1          13      0.0000      0.0800   1240.5587    703.0000     41.7020
            1          14      0.0000      0.0867   1239.7325    703.0000     41.6750
            1          15      0.0000      0.0933   1239.6939    703.0000     41.6737
            1          16      0.0000      0.1000   1240.4410    703.0000     41.6981
            1          17      0.0000      0.1067   1241.9646    703.0000     41.7482
            1          18      0.0000      0.1133   1244.2488    703.0000     41.8238
            1          19      0.0000      0.1200   1247.2711    703.0000     41.9251
            1          20      0.0000      0.1267   1251.0027    703.0000     42.0520
            1          21      0.0000      0.1333   1255.4092    703.0000     42.2045
            1          22      0.0000      0.1400   1260.4515    703.0000     42.3825
            1          23      0.0000      0.1467   1266.0908    703.0000     42.5859
            1          24      0.0000      0.1533   1272.2852    703.0000     42.8147
            1          25      0.0000      0.1600   1278.9917    703.0000     43.0686
            1          26      0.0000      0.1667   1286.1662    703.0000     43.3475
            1          27      0.0000      0.1733   1293.7643    703.0000     43.6509
            1          28      0.0000      0.1800   1301.7420    703.0000     43.9783
            1          29      0.0000      0.1867   1310.0557    703.0000     44.3290
            1          30      0.0000      0.1933   1318.6632    703.0000     44.7024
            1          31      0.0000      0.2000   1327.5233    703.0000     45.0976
            2           1      0.0333      0.0000   1258.1652    703.0000     42.3013
            2           2      0.0333      0.0067   1246.5323    703.0000     41.9002
            2           3      0.0333      0.0133   1235.4893    703.0000     41.5379
            2           4      0.0333      0.0200   1225.0925    703.0000     41.2132
            2           5      0.0333      0.0267   1215.3980    703.0000     40.9249
            2           6      0.0333      0.0333   1206.4602    703.0000     40.6715
            2           7      0.0333      0.0400   1198.3299    712.9674     40.4514
            2           8      0.0333      0.0467   1191.0694    720.8507     40.2632
            2           9      0.0333      0.0533   1184.7328    728.5981     40.1054
            2          10      0.0333      0.0600   1179.3689    735.7804     39.9766
            2          11      0.0333      0.0667   1175.0197    742.0200     39.8753
            2          12      0.0333      0.0733   1171.7192    747.0016     39.8003
            2          13      0.0333      0.0800   1169.4929    750.4811     39.7506
            2          14      0.0333      0.0867   1168.3574    752.2929     39.7256
            2          15      0.0333      0.0933   1168.3194    752.3538     39.7248
            2          16      0.0333      0.1000   1169.3765    750.6657     39.7481
            2          17      0.0333      0.1067   1171.5166    747.3143     39.7957
            2          18      0.0333      0.1133   1174.7181    742.4664     39.8683
            2          19      0.0333      0.1200   1178.9506    736.3644     39.9667
            2          20      0.0333      0.1267   1184.1750    729.3185     40.0918
            2          21      0.0333      0.1333   1190.3445    721.6963     40.2449
            2          22      0.0333      0.1400   1197.4055    713.9117     40.4270
            2          23      0.0333      0.1467   1205.2990    703.0000     40.6395
            2          24      0.0333      0.1533   1213.9564    703.0000     40.8832
            2          25      0.0333      0.1600   1223.3215    703.0000     41.1595
            2          26      0.0333      0.1667   1233.3345    703.0000     41.4693
            2          27      0.0333      0.1733   1243.9329    703.0000     41.8133
            2          28      0.0333      0.1800   1255.0544    703.0000     42.1921
            2          29      0.0333      0.1867   1266.6367    703.0000     42.6058
            2          30      0.0333      0.1933   1278.6191    703.0000     43.0544
            2          31      0.0333      0.2000   1290.9424    703.0000     43.5372
            3           1      0.0667      0.0000   1214.9218    703.0000     40.9111
            3           2      0.0667      0.0067   1200.5076    703.0000     40.5094
            3           3      0.0667      0.0133   1186.7503    726.0443     40.1550
            3           4      0.0667      0.0200   1173.7506    743.9105     39.8462
            3           5      0.0667      0.0267   1161.5980    763.5892     39.5806
            3           6      0.0667      0.0333   1150.3813    784.2464     39.3552
            3           7      0.0667      0.0400   1140.1853    805.0557     39.1667
            3           8      0.0667      0.0467   1131.0891    825.2206     39.0119
            3           9      0.0667      0.0533   1123.1640    843.9977     38.8871
            3          10      0.0667      0.0600   1116.4711    860.7173     38.7891
            3          11      0.0667      0.0667   1111.0605    874.8030     38.7148
            3          12      0.0667      0.0733   1106.9704    885.7846     38.6616
            3          13      0.0667      0.0800   1104.2284    893.3065     38.6274
            3          14      0.0667      0.0867   1102.8512    897.1325     38.6106
            3          15      0.0667      0.0933   1102.8459    897.1473     38.6105
            3          16      0.0667      0.1000   1104.2101    893.3572     38.6271
            3          17      0.0667      0.1067   1106.9319    885.8893     38.6611
            3          18      0.0667      0.1133   1110.9898    874.9902     38.7139
            3          19      0.0667      0.1200   1116.3519    861.0222     38.7874
            3          20      0.0667      0.1267   1122.9753    844.4583     38.8843
            3          21      0.0667      0.1333   1130.8059    825.8725     39.0072
            3          22      0.0667      0.1400   1139.7784    805.9256     39.1595
            3          23      0.0667      0.1467   1149.8182    785.3454     39.3444
            3          24      0.0667      0.1533   1160.8427    764.9056     39.5648
            3          25      0.0667      0.1600   1172.7638    745.4019     39.8238
            3          26      0.0667      0.1667   1185.4899    727.6303     40.1240
            3          27      0.0667      0.1733   1198.9279    712.3659     40.4673
            3          28      0.0667      0.1800   1212.9859    703.0000     40.8554
            3          29      0.0667      0.1867   1227.5790    703.0000     41.2894
            3          30      0.0667      0.1933   1242.6334    703.0000     41.7702
            3          31      0.0667      0.2000   1258.0756    703.0000     42.2981
            4           1      0.1000      0.0000   1178.0435    737.6426     39.9454
            4           2      0.1000      0.0067   1161.4475    763.8507     39.5774
            4           3      0.1000      0.0133   1145.6140    793.7376     39.2651
            4           4      0.1000      0.0200   1130.6647    826.1979     39.0049
            4           5      0.1000      0.0267   1116.7184    860.0858     38.7926
            4           6      0.1000      0.0333   1103.8871    894.2518     38.6232
            4           7      0.1000      0.0400   1092.2725    927.5819     38.4911
            4           8      0.1000      0.0467   1081.9629    959.0341     38.3909
            4           9      0.1000      0.0533   1073.0326    987.6666     38.3169
            4          10      0.1000      0.0600   1065.5420   1012.6573     38.2640
            4          11      0.1000      0.0667   1059.5323   1033.3398     38.2276
            4          12      0.1000      0.0733   1055.0251   1049.2159     38.2038
            4          13      0.1000      0.0800   1052.0306   1059.9347     38.1897
            4          14      0.1000      0.0867   1050.5526   1065.2753     38.1832
            4          15      0.1000      0.0933   1050.5914   1065.1347     38.1833
            4          16      0.1000      0.1000   1052.1454   1059.5214     38.1902
            4          17      0.1000      0.1067   1055.2110   1048.5552     38.2047
            4          18      0.1000      0.1133   1059.7810   1032.4729     38.2290
            4          19      0.1000      0.1200   1065.8422   1011.6391     38.2659
            4          20      0.1000      0.1267   1073.3694    986.5636     38.3194
            4          21      0.1000      0.1333   1082.3183    957.9211     38.3941
            4          22      0.1000      0.1400   1092.6252    926.5366     38.4948
            4          23      0.1000      0.1467   1104.2136    893.3476     38.6272
            4          24      0.1000      0.1533   1116.9934    859.3845     38.7965
            4          25      0.1000      0.1600   1130.8623    825.7427     39.0082
            4          26      0.1000      0.1667   1145.7079    793.5467     39.2669
            4          27      0.1000      0.1733   1161.4121    763.9122     39.5767
            4          28      0.1000      0.1800   1177.8547    737.9107     39.9410
            4          29      0.1000      0.1867   1194.9173    716.5397     40.3620
            4          30      0.1000      0.1933   1212.4868    703.0000     40.8411
            4          31      0.1000      0.2000   1230.4605    703.0000     41.3788
            5           1      0.1333      0.0000   1149.8950    785.1951     39.3458
            5           2      0.1333      0.0067   1131.7964    823.5993     39.0235
            5           3      0.1333      0.0133   1114.5908    865.5550     38.7628
            5           4      0.1333      0.0200   1098.4228    909.6515     38.5585
            5           5      0.1333      0.0267   1083.4280    954.4588     38.4041
            5           6      0.1333      0.0333   1069.7271    998.5860     38.2925
            5           7      0.1333      0.0400   1057.4215   1040.7365     38.2161
            5           8      0.1333      0.0467   1046.5821   1079.7843     38.1673
            5           9      0.1333      0.0533   1037.2548   1114.7898     38.1393
            5          10      0.1333      0.0600   1029.4608   1235.2829     38.1257
            5          11      0.1333      0.0667   1023.3695   1202.1176     38.1212
            5          12      0.1333      0.0733   1018.8880   1178.6499     38.1213
            5          13      0.1333      0.0800   1015.9552   1163.7099     38.1230
            5          14      0.1333      0.0867   1014.5334   1156.5844     38.1243
            5          15      0.1333      0.0933   1014.6046   1156.9395     38.1242
            5          16      0.1333      0.1000   1016.1683   1164.7844     38.1229
            5          17      0.1333      0.1067   1019.2415   1180.4726     38.1212
            5          18      0.1333      0.1133   1023.8608   1204.7384     38.1213
            5          19      0.1333      0.1200   1030.0871   1238.7769     38.1264
            5          20      0.1333      0.1267   1038.0125   1111.8983     38.1411
            5          21      0.1333      0.1333   1047.4569   1076.5675     38.1706
            5          22      0.1333      0.1400   1058.3971   1037.3093     38.2213
            5          23      0.1333      0.1467   1070.7856    995.0706     38.3001
            5          24      0.1333      0.1533   1084.5498    950.9791     38.4145
            5          25      0.1333      0.1600   1099.5874    906.3272     38.5719
            5          26      0.1333      0.1667   1115.7780    862.4934     38.7794
            5          27      0.1333      0.1733   1132.9876    820.8888     39.0432
            5          28      0.1333      0.1800   1151.0740    782.9023     39.3685
            5          29      0.1333      0.1867   1169.8928    749.8491     39.7595
            5          30      0.1333      0.1933   1189.3025    722.9302     40.2186
            5          31      0.1333      0.2000   1209.1692    703.0000     40.7471
            6           1      0.1667      0.0000   1130.2000    827.2715     38.9974
            6           2      0.1667      0.0067   1111.1530    874.5578     38.7161
            6           3      0.1667      0.0133   1093.1441    925.0026     38.5003
            6           4      0.1667      0.0200   1076.3327    976.9372     38.3428
            6           5      0.1667      0.0267   1060.8636   1028.7100     38.2352
            6           6      0.1667      0.0333   1046.8606   1078.7591     38.1684
            6           7      0.1667      0.0400   1034.4188   1125.6860     38.1333
            6           8      0.1667      0.0467   1023.6041   1203.3676     38.1213
            6           9      0.1667      0.0533   1014.5255   1156.5452     38.1243
            6          10      0.1667      0.0600   1007.0912   1120.5116     38.1357
            6          11      0.1667      0.0667   1001.2366   1093.5418     38.1503
            6          12      0.1667      0.0733    996.9115   1074.3902     38.1642
            6          13      0.1667      0.0800    994.0795   1062.1972     38.1748
            6          14      0.1667      0.0867    992.7167   1056.4259     38.1803
            6          15      0.1667      0.0933    992.8110   1056.8233     38.1799
            6          16      0.1667      0.1000    994.3622   1063.4018     38.1737
            6          17      0.1667      0.1067    997.3815   1076.4402     38.1626
            6          18      0.1667      0.1133   1001.8925   1096.5030     38.1484
            6          19      0.1667      0.1200   1007.9312   1124.4816     38.1340
            6          20      0.1667      0.1267   1015.5475   1161.6588     38.1234
            6          21      0.1667      0.1333   1024.8057   1209.8048     38.1217
            6          22      0.1667      0.1400   1035.7985   1120.3704     38.1361
            6          23      0.1667      0.1467   1048.3962   1073.1261     38.1743
            6          24      0.1667      0.1533   1062.5294   1022.9555     38.2451
            6          25      0.1667      0.1600   1078.1050    971.2467     38.3574
            6          26      0.1667      0.1667   1095.0004    919.5515     38.5203
            6          27      0.1667      0.1733   1113.0724    869.5062     38.7420
            6          28      0.1667      0.1800   1132.1640    822.7600     39.0295
            6          29      0.1667      0.1867   1152.1110    780.9068     39.3887
            6          30      0.1667      0.1933   1172.7493    745.4241     39.8235
            6          31      0.1667      0.2000   1193.9208    717.6274     40.3362
            7           1      0.2000      0.0000   1116.9686    859.4476     38.7962
            7           2      0.2000      0.0067   1097.3321    912.7854     38.5462
            7           3      0.2000      0.0133   1078.8496    968.8709     38.3637
            7           4      0.2000      0.0200   1061.6862   1025.8629     38.2400
            7           5      0.2000      0.0267   1045.9862   1081.9824     38.1652
            7           6      0.2000      0.0333   1031.8609   1248.7601     38.1289
            7           7      0.2000      0.0400   1019.5826   1182.2363     38.1211
            7           8      0.2000      0.0467   1009.0433   1129.7770     38.1319
            7           9      0.2000      0.0533   1000.1619   1088.7225     38.1535
            7          10      0.2000      0.0600    992.8724   1057.0821     38.1797
            7          11      0.2000      0.0667    987.1226   1033.3813     38.2056
            7          12      0.2000      0.0733    982.8723   1016.5513     38.2279
            7          13      0.2000      0.0800    980.0922   1005.8526     38.2438
            7          14      0.2000      0.0867    978.7631   1000.8230     38.2518
            7          15      0.2000      0.0933    978.8755   1001.2462     38.2511
            7          16      0.2000      0.1000    980.4294   1007.1374     38.2418
            7          17      0.2000      0.1067    983.4346   1018.7446     38.2248
            7          18      0.2000      0.1133    987.9106   1036.5654     38.2018
            7          19      0.2000      0.1200    993.8880   1061.3824     38.1756
            7          20      0.2000      0.1267   1001.4092   1094.3194     38.1498
            7          21      0.2000      0.1333   1010.5299   1136.9258     38.1294
            7          22      0.2000      0.1400   1021.3219   1191.2988     38.1209
            7          23      0.2000      0.1467   1033.8760   1127.7852     38.1323
            7          24      0.2000      0.1533   1048.0952   1074.2272     38.1731
            7          25      0.2000      0.1600   1063.8860   1018.3007     38.2534
            7          26      0.2000      0.1667   1081.1302    961.6497     38.3835
            7          27      0.2000      0.1733   1099.6794    906.0659     38.5730
            7          28      0.2000      0.1800   1119.3672    853.3864     38.8307
            7          29      0.2000      0.1867   1140.0168    805.4154     39.1638
            7          30      0.2000      0.1933   1161.4484    763.8490     39.5775
            7          31      0.2000      0.2000   1183.4868    730.2158     40.0751
            8           1      0.2333      0.0000   1108.2897    882.2113     38.6785
            8           2      0.2333      0.0067   1088.2954    939.5094     38.4506
            8           3      0.2333      0.0133   1069.5558    999.1566     38.2913
            8           4      0.2333      0.0200   1052.2420   1059.1737     38.1906
            8           5      0.2333      0.0267   1036.5015   1117.6724     38.1376
            8           6      0.2333      0.0333   1022.4542   1197.2611     38.1210
            8           7      0.2333      0.0400   1010.2335   1135.4940     38.1299
            8           8      0.2333      0.0467    999.7399   1086.8413     38.1548
            8           9      0.2333      0.0533    990.8938   1048.8032     38.1881
            8          10      0.2333      0.0600    983.6312   1019.5140     38.2237
            8          11      0.2333      0.0667    977.9021    997.5938     38.2571
            8          12      0.2333      0.0733    973.6680    982.0436     38.2848
            8          13      0.2333      0.0800    970.9008    972.1722     38.3042
            8          14      0.2333      0.0867    969.5822    967.5479     38.3139
            8          15      0.2333      0.0933    969.7027    967.9683     38.3130
            8          16      0.2333      0.1000    971.2616    973.4463     38.3016
            8          17      0.2333      0.1067    974.2671    984.2109     38.2807
            8          18      0.2333      0.1133    978.7363   1000.7221     38.2520
            8          19      0.2333      0.1200    984.6962   1023.7025     38.2180
            8          20      0.2333      0.1267    992.1840   1054.1871     38.1825
            8          21      0.2333      0.1333   1001.2490   1093.5978     38.1503
            8          22      0.2333      0.1400   1011.9539   1143.8499     38.1273
            8          23      0.2333      0.1467   1024.3771   1207.5024     38.1215
            8          24      0.2333      0.1533   1038.6167   1109.5985     38.1426
            8          25      0.2333      0.1600   1054.5143   1051.0350     38.2013
            8          26      0.2333      0.1667   1071.9514    991.2193     38.3087
            8          27      0.2333      0.1733   1090.7811    932.0240     38.4756
            8          28      0.2333      0.1800   1110.8344    875.4025     38.7118
            8          29      0.2333      0.1867   1131.9277    823.2994     39.0256
            8          30      0.2333      0.1933   1153.8718    777.5649     39.4233
            8          31      0.2333      0.2000   1176.4801    739.8835     39.9090
            9           1      0.2667      0.0000   1102.3997    898.3938     38.6051
            9           2      0.2667      0.0067   1082.1655    958.3992     38.3927
            9           3      0.2667      0.0133   1063.2435   1020.5016     38.2494
            9           4      0.2667      0.0200   1045.8062   1082.6473     38.1645
            9           5      0.2667      0.0267   1029.9925   1238.2482     38.1263
            9           6      0.2667      0.0333   1016.0665   1164.2707     38.1229
            9           7      0.2667      0.0400   1003.9246   1105.7730     38.1430
            9           8      0.2667      0.0467    993.4815   1059.6569     38.1772
            9           9      0.2667      0.0533    984.6672   1023.5882     38.2182
            9          10      0.2667      0.0600    977.4249    995.8140     38.2601
            9          11      0.2667      0.0667    971.7090    975.0319     38.2984
            9          12      0.2667      0.0733    967.4845    960.2960     38.3297
            9          13      0.2667      0.0800    964.7252    950.9508     38.3515
            9          14      0.2667      0.0867    963.4141    946.5862     38.3622
            9          15      0.2667      0.0933    963.5421    947.0102     38.3611
            9          16      0.2667      0.1000    965.1083    952.2351     38.3484
            9          17      0.2667      0.1067    968.1198    962.4789     38.3248
            9          18      0.2667      0.1133    972.5921    978.1786     38.2922
            9          19      0.2667      0.1200    978.5495   1000.0196     38.2531
            9          20      0.2667      0.1267    986.0255   1028.9815     38.2111
            9          21      0.2667      0.1333    995.0642   1066.4058     38.1710
            9          22      0.2667      0.1400   1005.7215   1114.0924     38.1387
            9          23      0.2667      0.1467   1018.0667   1174.4328     38.1217
            9          24      0.2667      0.1533   1032.1849   1250.5977     38.1294
            9          25      0.2667      0.1600   1048.1806   1073.9148     38.1734
            9          26      0.2667      0.1667   1065.7603   1011.9167     38.2654
            9          27      0.2667      0.1733   1084.7868    950.2468     38.4167
            9          28      0.2667      0.1800   1105.0895    890.9305     38.6380
            9          29      0.2667      0.1867   1126.4819    836.0010     38.9382
            9          30      0.2667      0.1933   1148.7694    787.4085     39.3243
            9          31      0.2667      0.2000   1171.7586    746.9409     39.8012
           10           1      0.3000      0.0000   1098.5252    909.3583     38.5597
           10           2      0.3000      0.0067   1078.1423    971.1274     38.3578
           10           3      0.3000      0.0133   1059.1212   1034.7752     38.2253
           10           4      0.3000      0.0200   1041.6359   1098.1875     38.1509
           10           5      0.3000      0.0267   1025.8285   1215.3285     38.1223
           10           6      0.3000      0.0333   1011.9048   1143.6099     38.1274
           10           7      0.3000      0.0400    999.7618   1086.9386     38.1547
           10           8      0.3000      0.0467    989.3154   1042.2919     38.1952
           10           9      0.3000      0.0533    980.4968   1007.3945     38.2414
           10          10      0.3000      0.0600    973.2502    980.5388     38.2876
           10          11      0.3000      0.0667    967.5313    960.4565     38.3293
           10          12      0.3000      0.0733    963.3056    946.2272     38.3631
           10          13      0.3000      0.0800    960.5478    937.2130     38.3864
           10          14      0.3000      0.0867    959.2409    933.0152     38.3979
           10          15      0.3000      0.0933    959.3761    933.4473     38.3967
           10          16      0.3000      0.1000    960.9523    938.5220     38.3829
           10          17      0.3000      0.1067    963.9764    948.4519     38.3575
           10          18      0.3000      0.1133    968.4632    963.6634     38.3222
           10          19      0.3000      0.1200    974.4361    984.8243     38.2796
           10          20      0.3000      0.1267    981.9278   1012.8895     38.2332
           10          21      0.3000      0.1333    990.9813   1049.1666     38.1877
           10          22      0.3000      0.1400   1001.6509   1095.4105     38.1491
           10          23      0.3000      0.1467   1014.0047   1153.9541     38.1248
           10          24      0.3000      0.1533   1028.1266   1227.8920     38.1242
           10          25      0.3000      0.1600   1044.1202   1088.8989     38.1587
           10          26      0.3000      0.1667   1061.7480   1025.6495     38.2404
           10          27      0.3000      0.1733   1080.8694    962.4714     38.3812
           10          28      0.3000      0.1800   1101.3117    901.4474     38.5921
           10          29      0.3000      0.1867   1122.8847    844.6798     38.8829
           10          30      0.3000      0.1933   1145.3893    794.1954     39.2610
           10          31      0.3000      0.2000   1168.6267    751.8609     39.7315
           11           1      0.3333      0.0000   1095.9404    916.8130     38.5306
           11           2      0.3333      0.0067   1075.4595    979.7593     38.3358
           11           3      0.3333      0.0133   1056.3726   1044.4372     38.2106
           11           4      0.3333      0.0200   1038.8543   1108.6956     38.1432
           11           5      0.3333      0.0267   1023.0477   1200.4065     38.1211
           11           6      0.3333      0.0333   1009.1184   1130.1362     38.1318
           11           7      0.3333      0.0400    996.9666   1074.6302     38.1640
           11           8      0.3333      0.0467    986.5102   1030.9204     38.2087
           11           9      0.3333      0.0533    977.6817    996.7709     38.2585
           11          10      0.3333      0.0600    970.4266    970.5032     38.3077
           11          11      0.3333      0.0667    964.7012    950.8704     38.3517
           11          12      0.3333      0.0733    960.4717    936.9674     38.3871
           11          13      0.3333      0.0800    957.7131    928.1672     38.4115
           11          14      0.3333      0.0867    956.4085    924.0783     38.4235
           11          15      0.3333      0.0933    956.5493    924.5174     38.4222
           11          16      0.3333      0.1000    958.1343    929.4974     38.4077
           11          17      0.3333      0.1067    961.1699    939.2279     38.3811
           11          18      0.3333      0.1133    965.6707    954.1284     38.3439
           11          19      0.3333      0.1200    971.6596    974.8562     38.2988
           11          20      0.3333      0.1267    979.1684   1002.3507     38.2493
           11          21      0.3333      0.1333    988.2390   1037.8981     38.2002
           11          22      0.3333      0.1400    998.9246   1083.2237     38.1574
           11          23      0.3333      0.1467   1011.2915   1140.6199     38.1283
           11          24      0.3333      0.1533   1025.4215   1213.1253     38.1221
           11          25      0.3333      0.1600   1041.4149   1099.0182     38.1502
           11          26      0.3333      0.1667   1059.0733   1034.9426     38.2250
           11          27      0.3333      0.1733   1078.2551    970.7672     38.3587
           11          28      0.3333      0.1800   1098.7875    908.6082     38.5627
           11          29      0.3333      0.1867   1120.4787    850.6117     38.8470
           11          30      0.3333      0.1933   1143.1268    798.8560     39.2195
           11          31      0.3333      0.2000   1166.5292    755.2618     39.6857
           12           1      0.3667      0.0000   1094.2059    921.8777     38.5117
           12           2      0.3667      0.0067   1073.6597    985.6144     38.3217
           12           3      0.3667      0.0133   1054.5284   1050.9845     38.2014
           12           4      0.3667      0.0200   1036.9872   1115.8129     38.1387
           12           5      0.3667      0.0267   1021.1796   1190.5526     38.1209
           12           6      0.3667      0.0333   1007.2450   1121.2362     38.1354
           12           7      0.3667      0.0400    995.0855   1066.4970     38.1709
           12           8      0.3667      0.0467    984.6204   1023.4033     38.2184
           12           9      0.3667      0.0533    975.7837    989.7457     38.2706
           12          10      0.3667      0.0600    968.5214    963.8647     38.3218
           12          11      0.3667      0.0667    962.7906    944.5276     38.3674
           12          12      0.3667      0.0733    958.5578    930.8396     38.4039
           12          13      0.3667      0.0800    955.7982    922.1810     38.4291
           12          14      0.3667      0.0867    954.4953    918.1644     38.4414
           12          15      0.3667      0.0933    954.6403    918.6092     38.4400
           12          16      0.3667      0.1000    956.2320    923.5284     38.4251
           12          17      0.3667      0.1067    959.2767    933.1295     38.3976
           12          18      0.3667      0.1133    963.7886    947.8278     38.3591
           12          19      0.3667      0.1200    969.7902    968.2737     38.3123
           12          20      0.3667      0.1267    977.3127    995.3966     38.2608
           12          21      0.3667      0.1333    986.3974   1030.4688     38.2093
           12          22      0.3667      0.1400    997.0965   1075.1962     38.1636
           12          23      0.3667      0.1467   1009.4750   1131.8447     38.1312
           12          24      0.3667      0.1533   1023.6131   1203.4159     38.1213
           12          25      0.3667      0.1600   1039.6090   1105.8335     38.1452
           12          26      0.3667      0.1667   1057.2896   1041.2007     38.2154
           12          27      0.3667      0.1733   1076.5130    976.3559     38.3443
           12          28      0.3667      0.1800   1097.1063    913.4368     38.5436
           12          29      0.3667      0.1867   1118.8765    854.6183     38.8236
           12          30      0.3667      0.1933   1141.6201    802.0119     39.1923
           12          31      0.3667      0.2000   1165.1321    757.5739     39.6556
           13           1      0.4000      0.0000   1093.0584    925.2557     38.4994
           13           2      0.4000      0.0067   1072.4692    989.5154     38.3126
           13           3      0.4000      0.0133   1053.3086   1055.3435     38.1955
           13           4      0.4000      0.0200   1035.7520   1120.5492     38.1360
           13           5      0.4000      0.0267   1019.9434   1184.1067     38.1210
           13           6      0.4000      0.0333   1006.0049   1115.4152     38.1380
           13           7      0.4000      0.0400    993.8400   1061.1782     38.1758
           13           8      0.4000      0.0467    983.3689   1018.4880     38.2252
           13           9      0.4000      0.0533    974.5264    985.1524     38.2790
           13          10      0.4000      0.0600    967.2592    959.5248     38.3314
           13          11      0.4000      0.0667    961.5246    940.3815     38.3780
           13          12      0.4000      0.0733    957.2895    926.8346     38.4154
           13          13      0.4000      0.0800    954.5294    918.2690     38.4411
           13          14      0.4000      0.0867    953.2278    914.3005     38.4535
           13          15      0.4000      0.0933    953.3760    914.7500     38.4521
           13          16      0.4000      0.1000    954.9726    919.6305     38.4369
           13          17      0.4000      0.1067    958.0239    929.1484     38.4087
           13          18      0.4000      0.1133    962.5439    943.7163     38.3694
           13          19      0.4000      0.1200    968.5548    963.9802     38.3215
           13          20      0.4000      0.1267    976.0875    990.8630     38.2687
           13          21      0.4000      0.1333    985.1827   1025.6280     38.2155
           13          22      0.4000      0.1400    995.8919   1069.9688     38.1679
           13          23      0.4000      0.1467   1008.2793   1126.1341     38.1333
           13          24      0.4000      0.1533   1022.4240   1197.1015     38.1210
           13          25      0.4000      0.1600   1038.4228   1110.3361     38.1421
           13          26      0.4000      0.1667   1056.1192   1045.3338     38.2093
           13          27      0.4000      0.1733   1075.3708    980.0468     38.3351
           13          28      0.4000      0.1800   1096.0045    916.6268     38.5313
           13          29      0.4000      0.1867   1117.8268    857.2674     38.8084
           13          30      0.4000      0.1933   1140.6331    804.1015     39.1747
           13          31      0.4000      0.2000   1164.2169    759.1088     39.6360
           14           1      0.4333      0.0000   1092.3353    927.3956     38.4918
           14           2      0.4333      0.0067   1071.7191    991.9849     38.3070
           14           3      0.4333      0.0133   1052.5401   1058.1015     38.1920
           14           4      0.4333      0.0200   1034.9738   1123.5447     38.1344
           14           5      0.4333      0.0267   1019.1646   1180.0756     38.1212
           14           6      0.4333      0.0333   1005.2236   1111.7756     38.1398
           14           7      0.4333      0.0400    993.0552   1057.8534     38.1789
           14           8      0.4333      0.0467    982.5803   1015.4162     38.2295
           14           9      0.4333      0.0533    973.7342    982.2825     38.2843
           14          10      0.4333      0.0600    966.4638    956.8137     38.3376
           14          11      0.4333      0.0667    960.7269    937.7921     38.3849
           14          12      0.4333      0.0733    956.4905    924.3338     38.4227
           14          13      0.4333      0.0800    953.7302    915.8269     38.4487
           14          14      0.4333      0.0867    952.4296    911.8890     38.4613
           14          15      0.4333      0.0933    952.5799    912.3418     38.4598
           14          16      0.4333      0.1000    954.1799    917.1989     38.4444
           14          17      0.4333      0.1067    957.2357    926.6656     38.4159
           14          18      0.4333      0.1133    961.7612    941.1530     38.3760
           14          19      0.4333      0.1200    967.7784    961.3043     38.3274
           14          20      0.4333      0.1267    975.3179    988.0385     38.2737
           14          21      0.4333      0.1333    984.4201   1022.6133     38.2195
           14          22      0.4333      0.1400    995.1362   1066.7148     38.1707
           14          23      0.4333      0.1467   1007.5298   1122.5810     38.1348
           14          24      0.4333      0.1533   1021.6792   1193.1747     38.1209
           14          25      0.4333      0.1600   1037.6804   1113.1646     38.1403
           14          26      0.4333      0.1667   1055.3871   1047.9295     38.2056
           14          27      0.4333      0.1733   1074.6567    982.3646     38.3294
           14          28      0.4333      0.1800   1095.3160    918.6305     38.5238
           14          29      0.4333      0.1867   1117.1711    858.9320     38.7991
           14          30      0.4333      0.1933   1140.0166    805.4158     39.1638
           14          31      0.4333      0.2000   1163.6452    760.0756     39.6238
           15           1      0.4667      0.0000   1091.9372    928.5773     38.4876
           15           2      0.4667      0.0067   1071.3062    993.3480     38.3039
           15           3      0.4667      0.0133   1052.1171   1059.6233     38.1901
           15           4      0.4667      0.0200   1034.5454   1125.1971     38.1335
           15           5      0.4667      0.0267   1018.7359   1177.8669     38.1214
           15           6      0.4667      0.0333   1004.7936   1109.7819     38.1408
           15           7      0.4667      0.0400    992.6232   1056.0324     38.1807
           15           8      0.4667      0.0467    982.1463   1013.7341     38.2319
           15           9      0.4667      0.0533    973.2982    980.7113     38.2873
           15          10      0.4667      0.0600    966.0262    955.3297     38.3411
           15          11      0.4667      0.0667    960.2881    936.3750     38.3887
           15          12      0.4667      0.0733    956.0510    922.9655     38.4268
           15          13      0.4667      0.0800    953.2906    914.4909     38.4529
           15          14      0.4667      0.0867    951.9906    910.5700     38.4656
           15          15      0.4667      0.0933    952.1422    911.0250     38.4641
           15          16      0.4667      0.1000    953.7442    915.8695     38.4486
           15          17      0.4667      0.1067    956.8026    925.3085     38.4198
           15          18      0.4667      0.1133    961.3312    939.7522     38.3797
           15          19      0.4667      0.1200    967.3520    959.8423     38.3307
           15          20      0.4667      0.1267    974.8955    986.4958     38.2765
           15          21      0.4667      0.1333    984.0018   1020.9673     38.2217
           15          22      0.4667      0.1400    994.7218   1064.9386     38.1723
           15          23      0.4667      0.1467   1007.1190   1120.6421     38.1356
           15          24      0.4667      0.1533   1021.2711   1191.0325     38.1209
           15          25      0.4667      0.1600   1037.2738   1114.7170     38.1393
           15          26      0.4667      0.1667   1054.9864   1049.3538     38.2036
           15          27      0.4667      0.1733   1074.2659    983.6364     38.3264
           15          28      0.4667      0.1800   1094.9394    919.7299     38.5196
           15          29      0.4667      0.1867   1116.8125    859.8457     38.7940
           15          30      0.4667      0.1933   1139.6795    806.1375     39.1578
           15          31      0.4667      0.2000   1163.3326    760.6071     39.6171
           16           1      0.5000      0.0000   1091.8102    928.9550     38.4863
           16           2      0.5000      0.0067   1071.1744    993.7837     38.3030
           16           3      0.5000      0.0133   1051.9821   1060.1096     38.1894
           16           4      0.5000      0.0200   1034.4087   1125.7250     38.1333
           16           5      0.5000      0.0267   1018.5991   1177.1635     38.1215
           16           6      0.5000      0.0333   1004.6563   1109.1470     38.1412
           16           7      0.5000      0.0400    992.4854   1055.4526     38.1813
           16           8      0.5000      0.0467    982.0078   1013.1985     38.2327
           16           9      0.5000      0.0533    973.1591    980.2111     38.2883
           16          10      0.5000      0.0600    965.8865    954.8574     38.3422
           16          11      0.5000      0.0667    960.1480    935.9239     38.3899
           16          12      0.5000      0.0733    955.9107    922.5300     38.4281
           16          13      0.5000      0.0800    953.1504    914.0657     38.4543
           16          14      0.5000      0.0867    951.8506    910.1503     38.4670
           16          15      0.5000      0.0933    952.0027    910.6061     38.4655
           16          16      0.5000      0.1000    953.6052    915.4466     38.4499
           16          17      0.5000      0.1067    956.6645    924.8769     38.4211
           16          18      0.5000      0.1133    961.1942    939.3067     38.3809
           16          19      0.5000      0.1200    967.2161    959.3775     38.3318
           16          20      0.5000      0.1267    974.7609    986.0053     38.2774
           16          21      0.5000      0.1333    983.8685   1020.4440     38.2224
           16          22      0.5000      0.1400    994.5898   1064.3740     38.1728
           16          23      0.5000      0.1467   1006.9881   1120.0260     38.1359
           16          24      0.5000      0.1533   1021.1412   1190.3518     38.1209
           16          25      0.5000      0.1600   1037.1444   1115.2115     38.1390
           16          26      0.5000      0.1667   1054.8589   1049.8076     38.2030
           16          27      0.5000      0.1733   1074.1416    984.0415     38.3254
           16          28      0.5000      0.1800   1094.8195    920.0801     38.5183
           16          29      0.5000      0.1867   1116.6984    860.1367     38.7923
           16          30      0.5000      0.1933   1139.5722    806.3675     39.1559
           16          31      0.5000      0.2000   1163.2331    760.7765     39.6150
           17           1      0.5333      0.0000   1091.9369    928.5783     38.4876
           17           2      0.5333      0.0067   1071.3058    993.3492     38.3039
           17           3      0.5333      0.0133   1052.1167   1059.6246     38.1900
           17           4      0.5333      0.0200   1034.5451   1125.1985     38.1335
           17           5      0.5333      0.0267   1018.7355   1177.8651     38.1214
           17           6      0.5333      0.0333   1004.7932   1109.7802     38.1408
           17           7      0.5333      0.0400    992.6229   1056.0309     38.1807
           17           8      0.5333      0.0467    982.1460   1013.7327     38.2319
           17           9      0.5333      0.0533    973.2978    980.7100     38.2873
           17          10      0.5333      0.0600    966.0258    955.3285     38.3411
           17          11      0.5333      0.0667    960.2877    936.3738     38.3887
           17          12      0.5333      0.0733    956.0506    922.9644     38.4268
           17          13      0.5333      0.0800    953.2902    914.4898     38.4529
           17          14      0.5333      0.0867    951.9903    910.5689     38.4656
           17          15      0.5333      0.0933    952.1419    911.0239     38.4641
           17          16      0.5333      0.1000    953.7438    915.8684     38.4486
           17          17      0.5333      0.1067    956.8022    925.3074     38.4198
           17          18      0.5333      0.1133    961.3309    939.7510     38.3797
           17          19      0.5333      0.1200    967.3517    959.8411     38.3307
           17          20      0.5333      0.1267    974.8951    986.4945     38.2765
           17          21      0.5333      0.1333    984.0014   1020.9659     38.2217
           17          22      0.5333      0.1400    994.7215   1064.9371     38.1723
           17          23      0.5333      0.1467   1007.1186   1120.6405     38.1356
           17          24      0.5333      0.1533   1021.2708   1191.0307     38.1209
           17          25      0.5333      0.1600   1037.2735   1114.7182     38.1393
           17          26      0.5333      0.1667   1054.9860   1049.3550     38.2036
           17          27      0.5333      0.1733   1074.2656    983.6374     38.3264
           17          28      0.5333      0.1800   1094.9390    919.7308     38.5196
           17          29      0.5333      0.1867   1116.8122    859.8464     38.7940
           17          30      0.5333      0.1933   1139.6792    806.1381     39.1578
           17          31      0.5333      0.2000   1163.3323    760.6075     39.6171
           18           1      0.5667      0.0000   1092.3346    927.3977     38.4918
           18           2      0.5667      0.0067   1071.7184    991.9873     38.3070
           18           3      0.5667      0.0133   1052.5393   1058.1042     38.1920
           18           4      0.5667      0.0200   1034.9730   1123.5476     38.1344
           18           5      0.5667      0.0267   1019.1638   1180.0717     38.1212
           18           6      0.5667      0.0333   1005.2228   1111.7721     38.1398
           18           7      0.5667      0.0400    993.0544   1057.8502     38.1789
           18           8      0.5667      0.0467    982.5796   1015.4132     38.2295
           18           9      0.5667      0.0533    973.7334    982.2798     38.2843
           18          10      0.5667      0.0600    966.4631    956.8111     38.3376
           18          11      0.5667      0.0667    960.7262    937.7896     38.3849
           18          12      0.5667      0.0733    956.4897    924.3315     38.4227
           18          13      0.5667      0.0800    953.7294    915.8245     38.4487
           18          14      0.5667      0.0867    952.4288    911.8867     38.4613
           18          15      0.5667      0.0933    952.5792    912.3396     38.4598
           18          16      0.5667      0.1000    954.1791    917.1966     38.4444
           18          17      0.5667      0.1067    957.2350    926.6633     38.4159
           18          18      0.5667      0.1133    961.7605    941.1506     38.3760
           18          19      0.5667      0.1200    967.7776    961.3018     38.3274
           18          20      0.5667      0.1267    975.3172    988.0358     38.2737
           18          21      0.5667      0.1333    984.4194   1022.6105     38.2195
           18          22      0.5667      0.1400    995.1355   1066.7118     38.1707
           18          23      0.5667      0.1467   1007.5291   1122.5777     38.1348
           18          24      0.5667      0.1533   1021.6785   1193.1710     38.1209
           18          25      0.5667      0.1600   1037.6797   1113.1673     38.1403
           18          26      0.5667      0.1667   1055.3864   1047.9320     38.2056
           18          27      0.5667      0.1733   1074.6560    982.3668     38.3294
           18          28      0.5667      0.1800   1095.3153    918.6323     38.5238
           18          29      0.5667      0.1867   1117.1705    858.9336     38.7991
           18          30      0.5667      0.1933   1140.0161    805.4171     39.1637
           18          31      0.5667      0.2000   1163.6447    760.0765     39.6238
           19           1      0.6000      0.0000   1093.0573    925.2589     38.4994
           19           2      0.6000      0.0067   1072.4681    989.5192     38.3126
           19           3      0.6000      0.0133   1053.3075   1055.3478     38.1955
           19           4      0.6000      0.0200   1035.7508   1120.5538     38.1360
           19           5      0.6000      0.0267   1019.9422   1184.1005     38.1210
           19           6      0.6000      0.0333   1006.0037   1115.4096     38.1380
           19           7      0.6000      0.0400    993.8388   1061.1731     38.1758
           19           8      0.6000      0.0467    983.3677   1018.4833     38.2252
           19           9      0.6000      0.0533    974.5252    985.1481     38.2790
           19          10      0.6000      0.0600    967.2580    959.5206     38.3314
           19          11      0.6000      0.0667    961.5234    940.3776     38.3780
           19          12      0.6000      0.0733    957.2883    926.8308     38.4154
           19          13      0.6000      0.0800    954.5282    918.2653     38.4411
           19          14      0.6000      0.0867    953.2266    914.2969     38.4536
           19          15      0.6000      0.0933    953.3748    914.7463     38.4521
           19          16      0.6000      0.1000    954.9714    919.6268     38.4369
           19          17      0.6000      0.1067    958.0227    929.1447     38.4087
           19          18      0.6000      0.1133    962.5428    943.7124     38.3694
           19          19      0.6000      0.1200    968.5537    963.9762     38.3215
           19          20      0.6000      0.1267    976.0864    990.8587     38.2687
           19          21      0.6000      0.1333    985.1815   1025.6234     38.2155
           19          22      0.6000      0.1400    995.8907   1069.9639     38.1679
           19          23      0.6000      0.1467   1008.2782   1126.1288     38.1333
           19          24      0.6000      0.1533   1022.4229   1197.0957     38.1210
           19          25      0.6000      0.1600   1038.4217   1110.3403     38.1421
           19          26      0.6000      0.1667   1056.1181   1045.3376     38.2093
           19          27      0.6000      0.1733   1075.3697    980.0502     38.3351
           19          28      0.6000      0.1800   1096.0034    916.6298     38.5313
           19          29      0.6000      0.1867   1117.8259    857.2698     38.8084
           19          30      0.6000      0.1933   1140.6322    804.1035     39.1747
           19          31      0.6000      0.2000   1164.2160    759.1102     39.6359
           20           1      0.6333      0.0000   1094.2043    921.8824     38.5117
           20           2      0.6333      0.0067   1073.6580    985.6198     38.3217
           20           3      0.6333      0.0133   1054.5267   1050.9906     38.2014
           20           4      0.6333      0.0200   1036.9854   1115.8196     38.1387
           20           5      0.6333      0.0267   1021.1778   1190.5435     38.1209
           20           6      0.6333      0.0333   1007.2432   1121.2280     38.1354
           20           7      0.6333      0.0400    995.0837   1066.4895     38.1709
           20           8      0.6333      0.0467    984.6187   1023.3965     38.2184
           20           9      0.6333      0.0533    975.7819    989.7393     38.2707
           20          10      0.6333      0.0600    968.5197    963.8587     38.3218
           20          11      0.6333      0.0667    962.7888    944.5219     38.3674
           20          12      0.6333      0.0733    958.5560    930.8341     38.4040
           20          13      0.6333      0.0800    955.7964    922.1755     38.4292
           20          14      0.6333      0.0867    954.4936    918.1591     38.4414
           20          15      0.6333      0.0933    954.6386    918.6039     38.4400
           20          16      0.6333      0.1000    956.2303    923.5230     38.4251
           20          17      0.6333      0.1067    959.2750    933.1240     38.3976
           20          18      0.6333      0.1133    963.7869    947.8221     38.3591
           20          19      0.6333      0.1200    969.7885    968.2678     38.3123
           20          20      0.6333      0.1267    977.3111    995.3904     38.2608
           20          21      0.6333      0.1333    986.3958   1030.4621     38.2093
           20          22      0.6333      0.1400    997.0949   1075.1890     38.1636
           20          23      0.6333      0.1467   1009.4734   1131.8369     38.1312
           20          24      0.6333      0.1533   1023.6115   1203.4073     38.1213
           20          25      0.6333      0.1600   1039.6074   1105.8396     38.1452
           20          26      0.6333      0.1667   1057.2881   1041.2062     38.2154
           20          27      0.6333      0.1733   1076.5115    976.3609     38.3443
           20          28      0.6333      0.1800   1097.1048    913.4411     38.5436
           20          29      0.6333      0.1867   1118.8751    854.6219     38.8235
           20          30      0.6333      0.1933   1141.6187    802.0147     39.1923
           20          31      0.6333      0.2000   1165.1308    757.5760     39.6555
           21           1      0.6667      0.0000   1095.9381    916.8195     38.5306
           21           2      0.6667      0.0067   1075.4572    979.7668     38.3358
           21           3      0.6667      0.0133   1056.3702   1044.4455     38.2106
           21           4      0.6667      0.0200   1038.8519   1108.7047     38.1432
           21           5      0.6667      0.0267   1023.0453   1200.3938     38.1211
           21           6      0.6667      0.0333   1009.1160   1130.1247     38.1318
           21           7      0.6667      0.0400    996.9642   1074.6197     38.1640
           21           8      0.6667      0.0467    986.5077   1030.9107     38.2087
           21           9      0.6667      0.0533    977.6793    996.7619     38.2585
           21          10      0.6667      0.0600    970.4242    970.4947     38.3077
           21          11      0.6667      0.0667    964.6988    950.8623     38.3517
           21          12      0.6667      0.0733    960.4693    936.9595     38.3871
           21          13      0.6667      0.0800    957.7106    928.1596     38.4116
           21          14      0.6667      0.0867    956.4061    924.0708     38.4235
           21          15      0.6667      0.0933    956.5469    924.5099     38.4222
           21          16      0.6667      0.1000    958.1319    929.4898     38.4078
           21          17      0.6667      0.1067    961.1675    939.2202     38.3811
           21          18      0.6667      0.1133    965.6684    954.1204     38.3439
           21          19      0.6667      0.1200    971.6572    974.8479     38.2988
           21          20      0.6667      0.1267    979.1660   1002.3419     38.2494
           21          21      0.6667      0.1333    988.2367   1037.8887     38.2002
           21          22      0.6667      0.1400    998.9223   1083.2136     38.1574
           21          23      0.6667      0.1467   1011.2892   1140.6089     38.1283
           21          24      0.6667      0.1533   1025.4192   1213.1131     38.1221
           21          25      0.6667      0.1600   1041.4127   1099.0266     38.1502
           21          26      0.6667      0.1667   1059.0711   1034.9503     38.2250
           21          27      0.6667      0.1733   1078.2529    970.7741     38.3587
           21          28      0.6667      0.1800   1098.7854    908.6141     38.5627
           21          29      0.6667      0.1867   1120.4767    850.6166     38.8470
           21          30      0.6667      0.1933   1143.1250    798.8598     39.2195
           21          31      0.6667      0.2000   1166.5275    755.2646     39.6857
           22           1      0.7000      0.0000   1098.5222    909.3670     38.5597
           22           2      0.7000      0.0067   1078.1392    971.1375     38.3577
           22           3      0.7000      0.0133   1059.1180   1034.7864     38.2253
           22           4      0.7000      0.0200   1041.6327   1098.1998     38.1509
           22           5      0.7000      0.0267   1025.8253   1215.3108     38.1223
           22           6      0.7000      0.0333   1011.9015   1143.5940     38.1274
           22           7      0.7000      0.0400    999.7585   1086.9241     38.1548
           22           8      0.7000      0.0467    989.3121   1042.2785     38.1952
           22           9      0.7000      0.0533    980.4935   1007.3820     38.2414
           22          10      0.7000      0.0600    973.2470    980.5269     38.2877
           22          11      0.7000      0.0667    967.5280    960.4453     38.3294
           22          12      0.7000      0.0733    963.3023    946.2163     38.3631
           22          13      0.7000      0.0800    960.5445    937.2023     38.3865
           22          14      0.7000      0.0867    959.2376    933.0047     38.3979
           22          15      0.7000      0.0933    959.3728    933.4368     38.3967
           22          16      0.7000      0.1000    960.9491    938.5114     38.3830
           22          17      0.7000      0.1067    963.9731    948.4412     38.3576
           22          18      0.7000      0.1133    968.4600    963.6523     38.3222
           22          19      0.7000      0.1200    974.4329    984.8127     38.2796
           22          20      0.7000      0.1267    981.9247   1012.8772     38.2332
           22          21      0.7000      0.1333    990.9781   1049.1536     38.1877
           22          22      0.7000      0.1400   1001.6478   1095.3965     38.1491
           22          23      0.7000      0.1467   1014.0016   1153.9387     38.1248
           22          24      0.7000      0.1533   1028.1236   1227.8750     38.1242
           22          25      0.7000      0.1600   1044.1171   1088.9103     38.1587
           22          26      0.7000      0.1667   1061.7450   1025.6600     38.2404
           22          27      0.7000      0.1733   1080.8664    962.4807     38.3811
           22          28      0.7000      0.1800   1101.3088    901.4554     38.5921
           22          29      0.7000      0.1867   1122.8820    844.6864     38.8828
           22          30      0.7000      0.1933   1145.3868    794.2005     39.2609
           22          31      0.7000      0.2000   1168.6243    751.8647     39.7315
           23           1      0.7333      0.0000   1102.3956    898.4052     38.6051
           23           2      0.7333      0.0067   1082.1613    958.4125     38.3926
           23           3      0.7333      0.0133   1063.2392   1020.5166     38.2494
           23           4      0.7333      0.0200   1045.8018   1082.6636     38.1645
           23           5      0.7333      0.0267   1029.9881   1238.2236     38.1263
           23           6      0.7333      0.0333   1016.0621   1164.2485     38.1229
           23           7      0.7333      0.0400   1003.9202   1105.7527     38.1430
           23           8      0.7333      0.0467    993.4771   1059.6382     38.1772
           23           9      0.7333      0.0533    984.6628   1023.5707     38.2182
           23          10      0.7333      0.0600    977.4205    995.7975     38.2601
           23          11      0.7333      0.0667    971.7046    975.0161     38.2985
           23          12      0.7333      0.0733    967.4800    960.2808     38.3297
           23          13      0.7333      0.0800    964.7208    950.9359     38.3515
           23          14      0.7333      0.0867    963.4097    946.5716     38.3622
           23          15      0.7333      0.0933    963.5377    946.9956     38.3612
           23          16      0.7333      0.1000    965.1039    952.2204     38.3484
           23          17      0.7333      0.1067    968.1155    962.4638     38.3249
           23          18      0.7333      0.1133    972.5878    978.1631     38.2922
           23          19      0.7333      0.1200    978.5452   1000.0034     38.2531
           23          20      0.7333      0.1267    986.0212   1028.9644     38.2112
           23          21      0.7333      0.1333    995.0600   1066.3876     38.1710
           23          22      0.7333      0.1400   1005.7173   1114.0726     38.1387
           23          23      0.7333      0.1467   1018.0624   1174.4112     38.1217
           23          24      0.7333      0.1533   1032.1807   1250.5738     38.1294
           23          25      0.7333      0.1600   1048.1764   1073.9301     38.1734
           23          26      0.7333      0.1667   1065.7561   1011.9308     38.2654
           23          27      0.7333      0.1733   1084.7827    950.2593     38.4167
           23          28      0.7333      0.1800   1105.0856    890.9412     38.6379
           23          29      0.7333      0.1867   1126.4782    836.0098     38.9381
           23          30      0.7333      0.1933   1148.7659    787.4153     39.3243
           23          31      0.7333      0.2000   1171.7553    746.9458     39.8011
           24           1      0.7667      0.0000   1108.2840    882.2264     38.6784
           24           2      0.7667      0.0067   1088.2895    939.5272     38.4505
           24           3      0.7667      0.0133   1069.5498    999.1766     38.2912
           24           4      0.7667      0.0200   1052.2359   1059.1957     38.1906
           24           5      0.7667      0.0267   1036.4954   1117.6959     38.1376
           24           6      0.7667      0.0333   1022.4481   1197.2290     38.1210
           24           7      0.7667      0.0400   1010.2274   1135.4648     38.1299
           24           8      0.7667      0.0467    999.7339   1086.8145     38.1548
           24           9      0.7667      0.0533    990.8877   1048.7782     38.1881
           24          10      0.7667      0.0600    983.6252   1019.4905     38.2238
           24          11      0.7667      0.0667    977.8961    997.5714     38.2572
           24          12      0.7667      0.0733    973.6620    982.0220     38.2848
           24          13      0.7667      0.0800    970.8949    972.1511     38.3043
           24          14      0.7667      0.0867    969.5763    967.5271     38.3139
           24          15      0.7667      0.0933    969.6967    967.9475     38.3130
           24          16      0.7667      0.1000    971.2557    973.4253     38.3017
           24          17      0.7667      0.1067    974.2612    984.1894     38.2808
           24          18      0.7667      0.1133    978.7304   1000.6999     38.2520
           24          19      0.7667      0.1200    984.6903   1023.6793     38.2181
           24          20      0.7667      0.1267    992.1782   1054.1625     38.1826
           24          21      0.7667      0.1333   1001.2432   1093.5714     38.1503
           24          22      0.7667      0.1400   1011.9480   1143.8213     38.1274
           24          23      0.7667      0.1467   1024.3713   1207.4709     38.1215
           24          24      0.7667      0.1533   1038.6108   1109.6209     38.1426
           24          25      0.7667      0.1600   1054.5084   1051.0559     38.2013
           24          26      0.7667      0.1667   1071.9456    991.2383     38.3087
           24          27      0.7667      0.1733   1090.7755    932.0408     38.4756
           24          28      0.7667      0.1800   1110.8290    875.4169     38.7118
           24          29      0.7667      0.1867   1131.9225    823.3111     39.0255
           24          30      0.7667      0.1933   1153.8669    777.5740     39.4232
           24          31      0.7667      0.2000   1176.4757    739.8899     39.9089
           25           1      0.8000      0.0000   1116.9608    859.4675     38.7961
           25           2      0.8000      0.0067   1097.3240    912.8088     38.5461
           25           3      0.8000      0.0133   1078.8413    968.8975     38.3636
           25           4      0.8000      0.0200   1061.6778   1025.8922     38.2400
           25           5      0.8000      0.0267   1045.9777   1082.0138     38.1651
           25           6      0.8000      0.0333   1031.8525   1248.7124     38.1289
           25           7      0.8000      0.0400   1019.5742   1182.1930     38.1211
           25           8      0.8000      0.0467   1009.0350   1129.7373     38.1320
           25           9      0.8000      0.0533   1000.1536   1088.6855     38.1535
           25          10      0.8000      0.0600    992.8641   1057.0473     38.1797
           25          11      0.8000      0.0667    987.1144   1033.3481     38.2057
           25          12      0.8000      0.0733    982.8641   1016.5194     38.2279
           25          13      0.8000      0.0800    980.0840   1005.8215     38.2439
           25          14      0.8000      0.0867    978.7550   1000.7923     38.2519
           25          15      0.8000      0.0933    978.8674   1001.2155     38.2512
           25          16      0.8000      0.1000    980.4213   1007.1064     38.2419
           25          17      0.8000      0.1067    983.4264   1018.7128     38.2248
           25          18      0.8000      0.1133    987.9025   1036.5325     38.2018
           25          19      0.8000      0.1200    993.8799   1061.3478     38.1756
           25          20      0.8000      0.1267   1001.4010   1094.2827     38.1498
           25          21      0.8000      0.1333   1010.5217   1136.8862     38.1294
           25          22      0.8000      0.1400   1021.3137   1191.2555     38.1209
           25          23      0.8000      0.1467   1033.8676   1127.8175     38.1323
           25          24      0.8000      0.1533   1048.0869   1074.2578     38.1731
           25          25      0.8000      0.1600   1063.8777   1018.3290     38.2534
           25          26      0.8000      0.1667   1081.1221    961.6754     38.3834
           25          27      0.8000      0.1733   1099.6715    906.0883     38.5729
           25          28      0.8000      0.1800   1119.3596    853.4054     38.8306
           25          29      0.8000      0.1867   1140.0097    805.4308     39.1636
           25          30      0.8000      0.1933   1161.4417    763.8608     39.5773
           25          31      0.8000      0.2000   1183.4805    730.2239     40.0749
           26           1      0.8333      0.0000   1130.1889    827.2973     38.9972
           26           2      0.8333      0.0067   1111.1414    874.5885     38.7159
           26           3      0.8333      0.0133   1093.1321    925.0380     38.5002
           26           4      0.8333      0.0200   1076.3205    976.9767     38.3427
           26           5      0.8333      0.0267   1060.8513   1028.7529     38.2351
           26           6      0.8333      0.0333   1046.8482   1078.8047     38.1683
           26           7      0.8333      0.0400   1034.4066   1125.7334     38.1333
           26           8      0.8333      0.0467   1023.5920   1203.3033     38.1212
           26           9      0.8333      0.0533   1014.5137   1156.4860     38.1243
           26          10      0.8333      0.0600   1007.0795   1120.4562     38.1357
           26          11      0.8333      0.0667   1001.2249   1093.4893     38.1503
           26          12      0.8333      0.0733    996.8999   1074.3398     38.1643
           26          13      0.8333      0.0800    994.0680   1062.1481     38.1749
           26          14      0.8333      0.0867    992.7052   1056.3775     38.1804
           26          15      0.8333      0.0933    992.7995   1056.7750     38.1800
           26          16      0.8333      0.1000    994.3507   1063.3529     38.1737
           26          17      0.8333      0.1067    997.3701   1076.3901     38.1626
           26          18      0.8333      0.1133   1001.8810   1096.4509     38.1484
           26          19      0.8333      0.1200   1007.9197   1124.4267     38.1340
           26          20      0.8333      0.1267   1015.5358   1161.6002     38.1234
           26          21      0.8333      0.1333   1024.7939   1209.7413     38.1217
           26          22      0.8333      0.1400   1035.7865   1120.4165     38.1360
           26          23      0.8333      0.1467   1048.3841   1073.1703     38.1742
           26          24      0.8333      0.1533   1062.5174   1022.9970     38.2450
           26          25      0.8333      0.1600   1078.0932    971.2846     38.3573
           26          26      0.8333      0.1667   1094.9888    919.5854     38.5202
           26          27      0.8333      0.1733   1113.0612    869.5355     38.7418
           26          28      0.8333      0.1800   1132.1533    822.7845     39.0293
           26          29      0.8333      0.1867   1152.1009    780.9263     39.3885
           26          30      0.8333      0.1933   1172.7398    745.4385     39.8233
           26          31      0.8333      0.2000   1193.9121    717.6371     40.3360
           27           1      0.8667      0.0000   1149.8792    785.2261     39.3455
           27           2      0.8667      0.0067   1131.7798    823.6372     39.0232
           27           3      0.8667      0.0133   1114.5736    865.5996     38.7626
           27           4      0.8667      0.0200   1098.4051    909.7022     38.5583
           27           5      0.8667      0.0267   1083.4100    954.5150     38.4040
           27           6      0.8667      0.0333   1069.7088    998.6468     38.2924
           27           7      0.8667      0.0400   1057.4031   1040.8010     38.2160
           27           8      0.8667      0.0467   1046.5639   1079.8514     38.1673
           27           9      0.8667      0.0533   1037.2368   1114.8585     38.1392
           27          10      0.8667      0.0600   1029.4432   1235.1850     38.1256
           27          11      0.8667      0.0667   1023.3522   1202.0255     38.1212
           27          12      0.8667      0.0733   1018.8709   1178.5617     38.1213
           27          13      0.8667      0.0800   1015.9382   1163.6242     38.1230
           27          14      0.8667      0.0867   1014.5165   1156.5000     38.1243
           27          15      0.8667      0.0933   1014.5877   1156.8552     38.1242
           27          16      0.8667      0.1000   1016.1514   1164.6990     38.1229
           27          17      0.8667      0.1067   1019.2245   1180.3850     38.1212
           27          18      0.8667      0.1133   1023.8438   1204.6471     38.1213
           27          19      0.8667      0.1200   1030.0698   1238.6802     38.1264
           27          20      0.8667      0.1267   1037.9949   1111.9654     38.1410
           27          21      0.8667      0.1333   1047.4391   1076.6328     38.1706
           27          22      0.8667      0.1400   1058.3793   1037.3718     38.2212
           27          23      0.8667      0.1467   1070.7679    995.1293     38.3000
           27          24      0.8667      0.1533   1084.5324    951.0332     38.4144
           27          25      0.8667      0.1600   1099.5704    906.3758     38.5717
           27          26      0.8667      0.1667   1115.7615    862.5359     38.7791
           27          27      0.8667      0.1733   1132.9717    820.9248     39.0429
           27          28      0.8667      0.1800   1151.0589    782.9315     39.3683
           27          29      0.8667      0.1867   1169.8786    749.8715     39.7592
           27          30      0.8667      0.1933   1189.2892    722.9460     40.2183
           27          31      0.8667      0.2000   1209.1571    703.0000     40.7467
           28           1      0.9000      0.0000   1178.0219    737.6733     39.9449
           28           2      0.9000      0.0067   1161.4247    763.8903     39.5770
           28           3      0.9000      0.0133   1145.5902    793.7861     39.2647
           28           4      0.9000      0.0200   1130.6400    826.2550     39.0045
           28           5      0.9000      0.0267   1116.6928    860.1510     38.7923
           28           6      0.9000      0.0333   1103.8609    894.3244     38.6228
           28           7      0.9000      0.0400   1092.2458    927.6611     38.4908
           28           8      0.9000      0.0467   1081.9358    959.1189     38.3906
           28           9      0.9000      0.0533   1073.0053    987.7561     38.3167
           28          10      0.9000      0.0600   1065.5146   1012.7505     38.2638
           28          11      0.9000      0.0667   1059.5048   1033.4358     38.2274
           28          12      0.9000      0.0733   1054.9976   1049.3140     38.2037
           28          13      0.9000      0.0800   1052.0031   1060.0340     38.1895
           28          14      0.9000      0.0867   1050.5250   1065.3752     38.1831
           28          15      0.9000      0.0933   1050.5639   1065.2343     38.1832
           28          16      0.9000      0.1000   1052.1180   1059.6201     38.1901
           28          17      0.9000      0.1067   1055.1837   1048.6523     38.2046
           28          18      0.9000      0.1133   1059.7539   1032.5675     38.2288
           28          19      0.9000      0.1200   1065.8152   1011.7306     38.2658
           28          20      0.9000      0.1267   1073.3426    986.6511     38.3192
           28          21      0.9000      0.1333   1082.2919    958.0037     38.3938
           28          22      0.9000      0.1400   1092.5992    926.6134     38.4946
           28          23      0.9000      0.1467   1104.1882    893.4178     38.6269
           28          24      0.9000      0.1533   1116.9688    859.4473     38.7962
           28          25      0.9000      0.1600   1130.8385    825.7974     39.0078
           28          26      0.9000      0.1667   1145.6852    793.5929     39.2664
           28          27      0.9000      0.1733   1161.3905    763.9498     39.5763
           28          28      0.9000      0.1800   1177.8343    737.9397     39.9405
           28          29      0.9000      0.1867   1194.8983    716.5603     40.3615
           28          30      0.9000      0.1933   1212.4692    703.0000     40.8406
           28          31      0.9000      0.2000   1230.4443    703.0000     41.3783
           29           1      0.9333      0.0000   1214.8950    703.0000     40.9103
           29           2      0.9333      0.0067   1200.4793    703.0000     40.5086
           29           3      0.9333      0.0133   1186.7204    726.0816     40.1543
           29           4      0.9333      0.0200   1173.7192    743.9576     39.8455
           29           5      0.9333      0.0267   1161.5653    763.6460     39.5799
           29           6      0.9333      0.0333   1150.3473    784.3124     39.3545
           29           7      0.9333      0.0400   1140.1503    805.1304     39.1661
           29           8      0.9333      0.0467   1131.0532    825.3032     39.0113
           29           9      0.9333      0.0533   1123.1274    844.0871     38.8866
           29          10      0.9333      0.0600   1116.4339    860.8125     38.7886
           29          11      0.9333      0.0667   1111.0228    874.9029     38.7143
           29          12      0.9333      0.0733   1106.9324    885.8880     38.6611
           29          13      0.9333      0.0800   1104.1902    893.4122     38.6269
           29          14      0.9333      0.0867   1102.8130    897.2392     38.6101
           29          15      0.9333      0.0933   1102.8077    897.2538     38.6100
           29          16      0.9333      0.1000   1104.1721    893.4622     38.6267
           29          17      0.9333      0.1067   1106.8943    885.9918     38.6607
           29          18      0.9333      0.1133   1110.9526    875.0888     38.7134
           29          19      0.9333      0.1200   1116.3153    861.1159     38.7869
           29          20      0.9333      0.1267   1122.9394    844.5460     38.8837
           29          21      0.9333      0.1333   1130.7709    825.9532     39.0067
           29          22      0.9333      0.1400   1139.7444    805.9984     39.1589
           29          23      0.9333      0.1467   1149.7854    785.4097     39.3437
           29          24      0.9333      0.1533   1160.8112    764.9608     39.5642
           29          25      0.9333      0.1600   1172.7337    745.4477     39.8232
           29          26      0.9333      0.1667   1185.4613    727.6666     40.1232
           29          27      0.9333      0.1733   1198.9010    712.3928     40.4666
           29          28      0.9333      0.1800   1212.9608    703.0000     40.8546
           29          29      0.9333      0.1867   1227.5556    703.0000     41.2887
           29          30      0.9333      0.1933   1242.6118    703.0000     41.7695
           29          31      0.9333      0.2000   1258.0559    703.0000     42.2974
           30           1      0.9667      0.0000   1258.1360    703.0000     42.3003
           30           2      0.9667      0.0067   1246.5011    703.0000     41.8992
           30           3      0.9667      0.0133   1235.4563    703.0000     41.5368
           30           4      0.9667      0.0200   1225.0576    703.0000     41.2121
           30           5      0.9667      0.0267   1215.3614    703.0000     40.9239
           30           6      0.9667      0.0333   1206.4220    703.0000     40.6705
           30           7      0.9667      0.0400   1198.2903    713.0075     40.4504
           30           8      0.9667      0.0467   1191.0284    720.8982     40.2622
           30           9      0.9667      0.0533   1184.6907    728.6522     40.1044
           30          10      0.9667      0.0600   1179.3259    735.8403     39.9755
           30          11      0.9667      0.0667   1174.9759    742.0847     39.8743
           30          12      0.9667      0.0733   1171.6748    747.0700     39.7993
           30          13      0.9667      0.0800   1169.4483    750.5519     39.7496
           30          14      0.9667      0.0867   1168.3126    752.3648     39.7246
           30          15      0.9667      0.0933   1168.2747    752.4257     39.7238
           30          16      0.9667      0.1000   1169.3321    750.7362     39.7471
           30          17      0.9667      0.1067   1171.4726    747.3822     39.7947
           30          18      0.9667      0.1133   1174.6748    742.5306     39.8673
           30          19      0.9667      0.1200   1178.9082    736.4238     39.9657
           30          20      0.9667      0.1267   1184.1337    729.3720     40.0908
           30          21      0.9667      0.1333   1190.3045    721.7433     40.2438
           30          22      0.9667      0.1400   1197.3669    713.9515     40.4260
           30          23      0.9667      0.1467   1205.2620    703.0000     40.6385
           30          24      0.9667      0.1533   1213.9211    703.0000     40.8822
           30          25      0.9667      0.1600   1223.2880    703.0000     41.1585
           30          26      0.9667      0.1667   1233.3027    703.0000     41.4683
           30          27      0.9667      0.1733   1243.9031    703.0000     41.8123
           30          28      0.9667      0.1800   1255.0265    703.0000     42.1911
           30          29      0.9667      0.1867   1266.6108    703.0000     42.6049
           30          30      0.9667      0.1933   1278.5953    703.0000     43.0534
           30          31      0.9667      0.2000   1290.9207    703.0000     43.5364
           31           1      1.0000      0.0000   1304.4887    703.0000     44.0931
           31           2      1.0000      0.0067   1296.0671    703.0000     43.7444
           31           3      1.0000      0.0133   1288.0827    703.0000     43.4232
           31           4      1.0000      0.0200   1280.5738    703.0000     43.1295
           31           5      1.0000      0.0267   1273.5793    703.0000     42.8632
           31           6      1.0000      0.0333   1267.1380    703.0000     42.6242
           31           7      1.0000      0.0400   1261.2883    703.0000     42.4124
           31           8      1.0000      0.0467   1256.0673    703.0000     42.2275
           31           9      1.0000      0.0533   1251.5094    703.0000     42.0694
           31          10      1.0000      0.0600   1247.6490    703.0000     41.9379
           31          11      1.0000      0.0667   1244.5164    703.0000     41.8327
           31          12      1.0000      0.0733   1242.1363    703.0000     41.7538
           31          13      1.0000      0.0800   1240.5271    703.0000     41.7010
           31          14      1.0000      0.0867   1239.7008    703.0000     41.6739
           31          15      1.0000      0.0933   1239.6623    703.0000     41.6727
           31          16      1.0000      0.1000   1240.4095    703.0000     41.6971
           31          17      1.0000      0.1067   1241.9335    703.0000     41.7471
           31          18      1.0000      0.1133   1244.2182    703.0000     41.8228
           31          19      1.0000      0.1200   1247.2412    703.0000     41.9241
           31          20      1.0000      0.1267   1250.9736    703.0000     42.0510
           31          21      1.0000      0.1333   1255.3810    703.0000     42.2035
           31          22      1.0000      0.1400   1260.4244    703.0000     42.3815
           31          23      1.0000      0.1467   1266.0647    703.0000     42.5849
           31          24      1.0000      0.1533   1272.2603    703.0000     42.8138
           31          25      1.0000      0.1600   1278.9680    703.0000     43.0677
           31          26      1.0000      0.1667   1286.1438    703.0000     43.3466
           31          27      1.0000      0.1733   1293.7433    703.0000     43.6500
           31          28      1.0000      0.1800   1301.7224    703.0000     43.9774
           31          29      1.0000      0.1867   1310.0375    703.0000     44.3282
           31          30      1.0000      0.1933   1318.6464    703.0000     44.7017
           31          31      1.0000      0.2000   1327.5080    703.0000     45.0969
