 ====================================================================================
               Transient state solution for a 2D rectangular plate
                    for applications in steel reheating
                 e.g. Reheating furnaces for rolling processing
 ====================================================================================
 Author: Dickson Alves de Souza

 Based on lectures by professor Roberto Parreiras Tavares

 and book Numerical Heat Transfer and Fluid Flow
 by Suhas V. Patankar (1980)

 Federal University of Minas Gerais (UFMG)
 October 26th, 2017
 ====================================================================================
                              Input parameters:

 Lenght in X direction (meters):           1.0000
 Lenght in Y direction (meters):           0.2000
 Nodes in X direction:                         31
 Nodes in Y direction:                         31
 ====================================================================================

                       STAGE                1/  5
                       START Time:         0.0000
                       END Time:        1140.0000
                       Iterations:              609

 ====================================================================================
 Temperature of fluid at left face (T left):             1223.1500
 Temperature of fluid at right face (T right):           1223.1500
 Temperature of fluid at bottom face (T bottom):         1223.1500
 Temperature of fluid at top face (T top):               1223.1500
 ------------------------------------------------------------------------------------
 Heat transfer coefficient at left face (H left):          50.0000
 Heat transfer coefficient at right face (H right):        50.0000
 Heat transfer coefficient at bottom face (H bottom):       8.0000
 Heat transfer coefficient at top face (H top):           150.0000
 ====================================================================================


 ====================================================================================

                       STAGE                2/  5
                       START Time:      1140.0000
                       END Time:        3060.0000
                       Iterations:              609

 ====================================================================================
 Temperature of fluid at left face (T left):             1423.1500
 Temperature of fluid at right face (T right):           1423.1500
 Temperature of fluid at bottom face (T bottom):         1423.1500
 Temperature of fluid at top face (T top):               1423.1500
 ------------------------------------------------------------------------------------
 Heat transfer coefficient at left face (H left):          50.0000
 Heat transfer coefficient at right face (H right):        50.0000
 Heat transfer coefficient at bottom face (H bottom):       8.0000
 Heat transfer coefficient at top face (H top):           150.0000
 ====================================================================================


 SOLUTION of LINEAR SYSTEM: TDMA (tri-diagonal matrix algorithm)
      ADI approach employed in solution.
 Tolerance:       0.0010

 ====================================================================================
                    Calculation Results
 Current time:    3060.0000000000000       seconds
 Maximum Temperature :    1358.5404834947003
 Minimum Temperature :    1029.7015516285373
 Average(algebraic, non-weigthed) Temperature :    1150.9231309722988
 ====================================================================================
            I           J        X(m)        Y(m)        T(K)  Cp(J/kg.K) K(W/sq-m.K)
 ====================================================================================
            1           1      0.0000      0.0000   1344.5583    703.0000     45.8878
            1           2      0.0000      0.0067   1338.9748    703.0000     45.6244
            1           3      0.0000      0.0133   1333.6939    703.0000     45.3792
            1           4      0.0000      0.0200   1328.7402    703.0000     45.1527
            1           5      0.0000      0.0267   1324.1380    703.0000     44.9453
            1           6      0.0000      0.0333   1319.9108    703.0000     44.7574
            1           7      0.0000      0.0400   1316.0810    703.0000     44.5893
            1           8      0.0000      0.0467   1312.6696    703.0000     44.4413
            1           9      0.0000      0.0533   1309.6957    703.0000     44.3136
            1          10      0.0000      0.0600   1307.1762    703.0000     44.2064
            1          11      0.0000      0.0667   1305.1256    703.0000     44.1198
            1          12      0.0000      0.0733   1303.5557    703.0000     44.0539
            1          13      0.0000      0.0800   1302.4752    703.0000     44.0088
            1          14      0.0000      0.0867   1301.8898    703.0000     43.9844
            1          15      0.0000      0.0933   1301.8017    703.0000     43.9807
            1          16      0.0000      0.1000   1302.2100    703.0000     43.9977
            1          17      0.0000      0.1067   1303.1102    703.0000     44.0353
            1          18      0.0000      0.1133   1304.4946    703.0000     44.0933
            1          19      0.0000      0.1200   1306.3526    703.0000     44.1716
            1          20      0.0000      0.1267   1308.6704    703.0000     44.2699
            1          21      0.0000      0.1333   1311.4317    703.0000     44.3880
            1          22      0.0000      0.1400   1314.6176    703.0000     44.5256
            1          23      0.0000      0.1467   1318.2074    703.0000     44.6824
            1          24      0.0000      0.1533   1322.1784    703.0000     44.8579
            1          25      0.0000      0.1600   1326.5068    703.0000     45.0517
            1          26      0.0000      0.1667   1331.1673    703.0000     45.2633
            1          27      0.0000      0.1733   1336.1343    703.0000     45.4921
            1          28      0.0000      0.1800   1341.3815    703.0000     45.7374
            1          29      0.0000      0.1867   1346.8824    703.0000     45.9987
            1          30      0.0000      0.1933   1352.6107    703.0000     46.2752
            1          31      0.0000      0.2000   1358.5405    703.0000     46.5660
            2           1      0.0333      0.0000   1313.6216    703.0000     44.4825
            2           2      0.0333      0.0067   1305.8427    703.0000     44.1501
            2           3      0.0333      0.0133   1298.4732    703.0000     43.8430
            2           4      0.0333      0.0200   1291.5510    703.0000     43.5617
            2           5      0.0333      0.0267   1285.1129    703.0000     43.3061
            2           6      0.0333      0.0333   1279.1940    703.0000     43.0764
            2           7      0.0333      0.0400   1273.8278    703.0000     42.8725
            2           8      0.0333      0.0467   1269.0452    703.0000     42.6943
            2           9      0.0333      0.0533   1264.8744    703.0000     42.5416
            2          10      0.0333      0.0600   1261.3405    703.0000     42.4142
            2          11      0.0333      0.0667   1258.4650    703.0000     42.3119
            2          12      0.0333      0.0733   1256.2651    703.0000     42.2344
            2          13      0.0333      0.0800   1254.7539    703.0000     42.1816
            2          14      0.0333      0.0867   1253.9397    703.0000     42.1533
            2          15      0.0333      0.0933   1253.8261    703.0000     42.1494
            2          16      0.0333      0.1000   1254.4115    703.0000     42.1697
            2          17      0.0333      0.1067   1255.6898    703.0000     42.2143
            2          18      0.0333      0.1133   1257.6498    703.0000     42.2831
            2          19      0.0333      0.1200   1260.2759    703.0000     42.3762
            2          20      0.0333      0.1267   1263.5480    703.0000     42.4936
            2          21      0.0333      0.1333   1267.4423    703.0000     42.6353
            2          22      0.0333      0.1400   1271.9316    703.0000     42.8015
            2          23      0.0333      0.1467   1276.9856    703.0000     42.9920
            2          24      0.0333      0.1533   1282.5715    703.0000     43.2069
            2          25      0.0333      0.1600   1288.6545    703.0000     43.4459
            2          26      0.0333      0.1667   1295.1982    703.0000     43.7090
            2          27      0.0333      0.1733   1302.1653    703.0000     43.9959
            2          28      0.0333      0.1800   1309.5176    703.0000     44.3060
            2          29      0.0333      0.1867   1317.2168    703.0000     44.6390
            2          30      0.0333      0.1933   1325.2247    703.0000     44.9940
            2          31      0.0333      0.2000   1333.5038    703.0000     45.3705
            3           1      0.0667      0.0000   1283.7584    703.0000     43.2531
            3           2      0.0667      0.0067   1273.8814    703.0000     42.8745
            3           3      0.0667      0.0133   1264.5055    703.0000     42.5282
            3           4      0.0667      0.0200   1255.6819    703.0000     42.2140
            3           5      0.0667      0.0267   1247.4600    703.0000     41.9315
            3           6      0.0667      0.0333   1239.8879    703.0000     41.6801
            3           7      0.0667      0.0400   1233.0114    703.0000     41.4590
            3           8      0.0667      0.0467   1226.8741    703.0000     41.2677
            3           9      0.0667      0.0533   1221.5161    703.0000     41.1052
            3          10      0.0667      0.0600   1216.9733    703.0000     40.9708
            3          11      0.0667      0.0667   1213.2776    703.0000     40.8637
            3          12      0.0667      0.0733   1210.4546    703.0000     40.7833
            3          13      0.0667      0.0800   1208.5239    703.0000     40.7290
            3          14      0.0667      0.0867   1207.4983    703.0000     40.7004
            3          15      0.0667      0.0933   1207.3833    703.0000     40.6972
            3          16      0.0667      0.1000   1208.1773    703.0000     40.7193
            3          17      0.0667      0.1067   1209.8714    703.0000     40.7668
            3          18      0.0667      0.1133   1212.4495    703.0000     40.8400
            3          19      0.0667      0.1200   1215.8889    703.0000     40.9392
            3          20      0.0667      0.1267   1220.1608    703.0000     41.0648
            3          21      0.0667      0.1333   1225.2304    703.0000     41.2174
            3          22      0.0667      0.1400   1231.0589    703.0000     41.3976
            3          23      0.0667      0.1467   1237.6037    703.0000     41.6059
            3          24      0.0667      0.1533   1244.8191    703.0000     41.8428
            3          25      0.0667      0.1600   1252.6570    703.0000     42.1089
            3          26      0.0667      0.1667   1261.0682    703.0000     42.4045
            3          27      0.0667      0.1733   1270.0019    703.0000     42.7297
            3          28      0.0667      0.1800   1279.4069    703.0000     43.0846
            3          29      0.0667      0.1867   1289.2319    703.0000     43.4689
            3          30      0.0667      0.1933   1299.4258    703.0000     43.8823
            3          31      0.0667      0.2000   1309.9384    703.0000     44.3240
            4           1      0.1000      0.0000   1256.0784    703.0000     42.2279
            4           2      0.1000      0.0067   1244.2899    703.0000     41.8252
            4           3      0.1000      0.0133   1233.0754    703.0000     41.4611
            4           4      0.1000      0.0200   1222.4944    703.0000     41.1346
            4           5      0.1000      0.0267   1212.6064    703.0000     40.8445
            4           6      0.1000      0.0333   1203.4690    703.0000     40.5894
            4           7      0.1000      0.0400   1195.1363    716.3034     40.3677
            4           8      0.1000      0.0467   1187.6778    724.8976     40.1780
            4           9      0.1000      0.0533   1181.1517    733.3302     40.0189
            4          10      0.1000      0.0600   1175.6109    741.1501     39.8889
            4          11      0.1000      0.0667   1171.1018    747.9569     39.7864
            4          12      0.1000      0.0733   1167.6627    753.4134     39.7104
            4          13      0.1000      0.0800   1165.3229    757.2559     39.6597
            4          14      0.1000      0.0867   1164.1019    759.3028     39.6335
            4          15      0.1000      0.0933   1164.0086    759.4604     39.6315
            4          16      0.1000      0.1000   1165.0411    757.7258     39.6536
            4          17      0.1000      0.1067   1167.1869    754.1863     39.7000
            4          18      0.1000      0.1133   1170.4229    749.0159     39.7713
            4          19      0.1000      0.1200   1174.7165    742.4688     39.8683
            4          20      0.1000      0.1267   1180.0259    734.8702     39.9921
            4          21      0.1000      0.1333   1186.3017    726.6052     40.1439
            4          22      0.1000      0.1400   1193.4880    718.1062     40.3250
            4          23      0.1000      0.1467   1201.5238    703.0000     40.5367
            4          24      0.1000      0.1533   1210.3346    703.0000     40.7799
            4          25      0.1000      0.1600   1219.8635    703.0000     41.0560
            4          26      0.1000      0.1667   1230.0500    703.0000     41.3660
            4          27      0.1000      0.1733   1240.8320    703.0000     41.7109
            4          28      0.1000      0.1800   1252.1467    703.0000     42.0913
            4          29      0.1000      0.1867   1263.9317    703.0000     42.5075
            4          30      0.1000      0.1933   1276.1246    703.0000     42.9593
            4          31      0.1000      0.2000   1288.6642    703.0000     43.4463
            5           1      0.1333      0.0000   1231.6132    703.0000     41.4150
            5           2      0.1333      0.0067   1218.2301    703.0000     41.0077
            5           3      0.1333      0.0133   1205.4538    703.0000     40.6438
            5           4      0.1333      0.0200   1193.3506    718.2589     40.3215
            5           5      0.1333      0.0267   1182.0057    732.1787     40.0394
            5           6      0.1333      0.0333   1171.5002    747.3395     39.7954
            5           7      0.1333      0.0400   1161.9146    763.0406     39.5872
            5           8      0.1333      0.0467   1153.3265    778.5935     39.4125
            5           9      0.1333      0.0533   1145.8090    793.3412     39.2687
            5          10      0.1333      0.0600   1139.4279    806.6774     39.1534
            5          11      0.1333      0.0667   1134.2409    818.0645     39.0641
            5          12      0.1333      0.0733   1130.2953    827.0511     38.9989
            5          13      0.1333      0.0800   1127.6272    833.2858     38.9562
            5          14      0.1333      0.0867   1126.2605    836.5284     38.9347
            5          15      0.1333      0.0933   1126.2064    836.6576     38.9339
            5          16      0.1333      0.1000   1127.4628    833.6742     38.9536
            5          17      0.1333      0.1067   1130.0146    827.7010     38.9944
            5          18      0.1333      0.1133   1133.8343    818.9776     39.0573
            5          19      0.1333      0.1200   1138.8820    807.8528     39.1438
            5          20      0.1333      0.1267   1145.1070    794.7719     39.2557
            5          21      0.1333      0.1333   1152.4484    780.2620     39.3953
            5          22      0.1333      0.1400   1160.8374    764.9149     39.5647
            5          23      0.1333      0.1467   1170.1985    749.3680     39.7663
            5          24      0.1333      0.1533   1180.4514    734.2852     40.0022
            5          25      0.1333      0.1600   1191.5137    720.3377     40.2745
            5          26      0.1333      0.1667   1203.3023    703.0000     40.5849
            5          27      0.1333      0.1733   1215.7278    703.0000     40.9345
            5          28      0.1333      0.1800   1228.7218    703.0000     41.3247
            5          29      0.1333      0.1867   1242.2144    703.0000     41.7564
            5          30      0.1333      0.1933   1256.1355    703.0000     42.2299
            5          31      0.1333      0.2000   1270.4160    703.0000     42.7451
            6           1      0.1667      0.0000   1211.4669    703.0000     40.8120
            6           2      0.1667      0.0067   1196.8174    714.5215     40.4116
            6           3      0.1667      0.0133   1182.8029    731.1167     40.0586
            6           4      0.1667      0.0200   1169.5160    750.4445     39.7511
            6           5      0.1667      0.0267   1157.0521    771.6758     39.4869
            6           6      0.1667      0.0333   1145.5065    793.9566     39.2631
            6           7      0.1667      0.0400   1134.9726    816.4287     39.0765
            6           8      0.1667      0.0467   1125.5395    838.2524     38.9235
            6           9      0.1667      0.0533   1117.2893    858.6313     38.8007
            6          10      0.1667      0.0600   1110.2955    876.8351     38.7047
            6          11      0.1667      0.0667   1104.6211    892.2214     38.6322
            6          12      0.1667      0.0733   1100.3176    904.2548     38.5804
            6          13      0.1667      0.0800   1097.4238    912.5213     38.5472
            6          14      0.1667      0.0867   1095.9654    916.7402     38.5309
            6          15      0.1667      0.0933   1095.9545    916.7719     38.5308
            6          16      0.1667      0.1000   1097.3890    912.6215     38.5468
            6          17      0.1667      0.1067   1100.2529    904.4381     38.5797
            6          18      0.1667      0.1133   1104.5165    892.5101     38.6309
            6          19      0.1667      0.1200   1110.1374    877.2565     38.7026
            6          20      0.1667      0.1267   1117.0605    859.2137     38.7975
            6          21      0.1667      0.1333   1125.2196    839.0204     38.9186
            6          22      0.1667      0.1400   1134.5386    817.3978     39.0691
            6          23      0.1667      0.1467   1144.9329    795.1279     39.2525
            6          24      0.1667      0.1533   1156.3118    773.0297     39.4720
            6          25      0.1667      0.1600   1168.5802    751.9353     39.7305
            6          26      0.1667      0.1667   1181.6417    732.6677     40.0306
            6          27      0.1667      0.1733   1195.4001    716.0200     40.3745
            6          28      0.1667      0.1800   1209.7621    703.0000     40.7638
            6          29      0.1667      0.1867   1224.6388    703.0000     41.1994
            6          30      0.1667      0.1933   1239.9561    703.0000     41.6823
            6          31      0.1667      0.2000   1255.6405    703.0000     42.2126
            7           1      0.2000      0.0000   1196.0269    715.3522     40.3909
            7           2      0.2000      0.0067   1180.4495    734.2878     40.0022
            7           3      0.2000      0.0133   1165.5446    756.8873     39.6644
            7           4      0.2000      0.0200   1151.4166    782.2408     39.3752
            7           5      0.2000      0.0267   1138.1713    809.3914     39.1314
            7           6      0.2000      0.0333   1125.9133    837.3576     38.9293
            7           7      0.2000      0.0400   1114.7436    865.1596     38.7649
            7           8      0.2000      0.0467   1104.7567    891.8473     38.6339
            7           9      0.2000      0.0533   1096.0383    916.5285     38.5317
            7          10      0.2000      0.0600   1088.6634    938.3949     38.4542
            7          11      0.2000      0.0667   1082.6948    956.7440     38.3975
            7          12      0.2000      0.0733   1078.1827    970.9984     38.3581
            7          13      0.2000      0.0800   1075.1638    980.7178     38.3334
            7          14      0.2000      0.0867   1073.6616    985.6080     38.3217
            7          15      0.2000      0.0933   1073.6871    985.5249     38.3219
            7          16      0.2000      0.1000   1075.2381    980.4768     38.3340
            7          17      0.2000      0.1067   1078.3000    970.6238     38.3591
            7          18      0.2000      0.1133   1082.8452    956.2746     38.3988
            7          19      0.2000      0.1200   1088.8333    937.8810     38.4559
            7          20      0.2000      0.1267   1096.2107    916.0283     38.5336
            7          21      0.2000      0.1333   1104.9112    891.4217     38.6358
            7          22      0.2000      0.1400   1114.8569    864.8668     38.7665
            7          23      0.2000      0.1467   1125.9598    837.2464     38.9300
            7          24      0.2000      0.1533   1138.1237    809.4947     39.1305
            7          25      0.2000      0.1600   1151.2463    782.5693     39.3719
            7          26      0.2000      0.1667   1165.2222    757.4237     39.6575
            7          27      0.2000      0.1733   1179.9451    734.9817     39.9902
            7          28      0.2000      0.1800   1195.3107    716.1159     40.3722
            7          29      0.2000      0.1867   1211.2188    703.0000     40.8050
            7          30      0.2000      0.1933   1227.5761    703.0000     41.2893
            7          31      0.2000      0.2000   1244.3044    703.0000     41.8257
            8           1      0.2333      0.0000   1184.8885    728.3982     40.1092
            8           2      0.2333      0.0067   1168.6671    751.7961     39.7324
            8           3      0.2333      0.0133   1153.1553    778.9177     39.4092
            8           4      0.2333      0.0200   1138.4649    808.7548     39.1365
            8           5      0.2333      0.0267   1124.7079    840.2526     38.9107
            8           6      0.2333      0.0333   1111.9939    872.3368     38.7273
            8           7      0.2333      0.0400   1100.4271    903.9446     38.5817
            8           8      0.2333      0.0467   1090.1031    934.0557     38.4687
            8           9      0.2333      0.0533   1081.1070    961.7229     38.3833
            8          10      0.2333      0.0600   1073.5118    986.0978     38.3205
            8          11      0.2333      0.0667   1067.3774   1006.4524     38.2762
            8          12      0.2333      0.0733   1062.7508   1022.1939     38.2464
            8          13      0.2333      0.0800   1059.6659   1032.8741     38.2283
            8          14      0.2333      0.0867   1058.1442   1038.1962     38.2199
            8          15      0.2333      0.0933   1058.1953   1038.0169     38.2202
            8          16      0.2333      0.1000   1059.8173   1032.3465     38.2292
            8          17      0.2333      0.1067   1062.9968   1021.3485     38.2479
            8          18      0.2333      0.1133   1067.7085   1005.3388     38.2784
            8          19      0.2333      0.1200   1073.9147    984.7817     38.3236
            8          20      0.2333      0.1267   1081.5649    960.2830     38.3873
            8          21      0.2333      0.1333   1090.5957    932.5788     38.4737
            8          22      0.2333      0.1400   1100.9313    902.5196     38.5876
            8          23      0.2333      0.1467   1112.4839    871.0484     38.7340
            8          24      0.2333      0.1533   1125.1559    839.1734     38.9176
            8          25      0.2333      0.1600   1138.8421    807.9391     39.1431
            8          26      0.2333      0.1667   1153.4320    778.3941     39.4146
            8          27      0.2333      0.1733   1168.8134    751.5623     39.7356
            8          28      0.2333      0.1800   1184.8747    728.4159     40.1089
            8          29      0.2333      0.1867   1201.5079    703.0000     40.5363
            8          30      0.2333      0.1933   1218.6032    703.0000     41.0187
            8          31      0.2333      0.2000   1236.0786    703.0000     41.5568
            9           1      0.2667      0.0000   1177.1732    738.8841     39.9251
            9           2      0.2667      0.0067   1160.5188    765.4736     39.5581
            9           3      0.2667      0.0133   1144.6043    795.8018     39.2465
            9           4      0.2667      0.0200   1129.5460    828.7892     38.9868
            9           5      0.2667      0.0267   1115.4594    863.3126     38.7749
            9           6      0.2667      0.0333   1102.4559    898.2365     38.6058
            9           7      0.2667      0.0400   1090.6398    932.4467     38.4742
            9           8      0.2667      0.0467   1080.1056    964.8838     38.3745
            9           9      0.2667      0.0533   1070.9358    994.5733     38.3012
            9          10      0.2667      0.0600   1063.2003   1020.6501     38.2492
            9          11      0.2667      0.0667   1056.9564   1042.3752     38.2136
            9          12      0.2667      0.0733   1052.2505   1059.1430     38.1907
            9          13      0.2667      0.0800   1049.1201   1070.4828     38.1772
            9          14      0.2667      0.0867   1047.5850   1076.0971     38.1711
            9          15      0.2667      0.0933   1047.6532   1075.8469     38.1714
            9          16      0.2667      0.1000   1049.3229   1069.7435     38.1780
            9          17      0.2667      0.1067   1052.5827   1057.9485     38.1922
            9          18      0.2667      0.1133   1057.4088   1040.7811     38.2160
            9          19      0.2667      0.1200   1063.7597   1018.7329     38.2526
            9          20      0.2667      0.1267   1071.5854    992.4261     38.3060
            9          21      0.2667      0.1333   1080.8248    962.6120     38.3808
            9          22      0.2667      0.1400   1091.4050    930.1613     38.4821
            9          23      0.2667      0.1467   1103.2406    896.0476     38.6153
            9          24      0.2667      0.1533   1116.2350    861.3215     38.7858
            9          25      0.2667      0.1600   1130.2825    827.0807     38.9987
            9          26      0.2667      0.1667   1145.2709    794.4369     39.2588
            9          27      0.2667      0.1733   1161.0844    764.4832     39.5699
            9          28      0.2667      0.1800   1177.6070    738.2635     39.9352
            9          29      0.2667      0.1867   1194.7251    716.7480     40.3570
            9          30      0.2667      0.1933   1212.3304    703.0000     40.8366
            9          31      0.2667      0.2000   1230.3240    703.0000     41.3746
           10           1      0.3000      0.0000   1171.9895    746.5856     39.8064
           10           2      0.3000      0.0067   1155.0510    775.3591     39.4467
           10           3      0.3000      0.0133   1138.8769    807.8640     39.1437
           10           4      0.3000      0.0200   1123.5864    842.9689     38.8935
           10           5      0.3000      0.0267   1109.2971    879.5026     38.6916
           10           6      0.3000      0.0333   1096.1216    916.2868     38.5326
           10           7      0.3000      0.0400   1084.1644    952.1723     38.4109
           10           8      0.3000      0.0467   1073.5193    986.0734     38.3206
           10           9      0.3000      0.0533   1064.2671   1016.9982     38.2558
           10          10      0.3000      0.0600   1056.4759   1044.0718     38.2111
           10          11      0.3000      0.0667   1050.2012   1066.5498     38.1817
           10          12      0.3000      0.0733   1045.4879   1083.8244     38.1634
           10          13      0.3000      0.0800   1042.3620   1095.4633     38.1531
           10          14      0.3000      0.0867   1040.8371   1101.1935     38.1485
           10          15      0.3000      0.0933   1040.9181   1100.8884     38.1488
           10          16      0.3000      0.1000   1042.6031   1094.5606     38.1538
           10          17      0.3000      0.1067   1045.8835   1082.3616     38.1648
           10          18      0.3000      0.1133   1050.7420   1064.5892     38.1840
           10          19      0.3000      0.1200   1057.1481   1041.6994     38.2146
           10          20      0.3000      0.1267   1065.0525   1014.3212     38.2608
           10          21      0.3000      0.1333   1074.3959    983.2132     38.3274
           10          22      0.3000      0.1400   1085.1072    949.2578     38.4198
           10          23      0.3000      0.1467   1097.1029    913.4465     38.5436
           10          24      0.3000      0.1533   1110.2874    876.8568     38.7046
           10          25      0.3000      0.1600   1124.5549    840.6216     38.9083
           10          26      0.3000      0.1667   1139.7923    805.8958     39.1598
           10          27      0.3000      0.1733   1155.8818    773.8207     39.4633
           10          28      0.3000      0.1800   1172.7045    745.4923     39.8225
           10          29      0.3000      0.1867   1190.1434    721.9327     40.2398
           10          30      0.3000      0.1933   1208.0865    703.0000     40.7168
           10          31      0.3000      0.2000   1226.4274    703.0000     41.2540
           11           1      0.3333      0.0000   1168.5844    751.9286     39.7306
           11           2      0.3333      0.0067   1151.4626    782.1522     39.3761
           11           3      0.3333      0.0133   1135.1234    816.0928     39.0790
           11           4      0.3333      0.0200   1119.6879    852.5836     38.8354
           11           5      0.3333      0.0267   1105.2748    890.4211     38.6403
           11           6      0.3333      0.0333   1091.9971    928.3995     38.4882
           11           7      0.3333      0.0400   1079.9590    965.3477     38.3732
           11           8      0.3333      0.0467   1069.2537   1000.1639     38.2891
           11           9      0.3333      0.0533   1059.9613   1031.8449     38.2300
           11          10      0.3333      0.0600   1052.1496   1059.5064     38.1902
           11          11      0.3333      0.0667   1045.8749   1082.3932     38.1648
           11          12      0.3333      0.0733   1041.1718   1099.9330     38.1495
           11          13      0.3333      0.0800   1038.0594   1111.7197     38.1412
           11          14      0.3333      0.0867   1036.5471   1117.4977     38.1377
           11          15      0.3333      0.0933   1036.6382   1117.1488     38.1379
           11          16      0.3333      0.1000   1038.3307   1110.6864     38.1419
           11          17      0.3333      0.1067   1041.6177   1098.2559     38.1508
           11          18      0.3333      0.1133   1046.4849   1080.1423     38.1670
           11          19      0.3333      0.1200   1052.9068   1056.7846     38.1937
           11          20      0.3333      0.1267   1060.8399   1028.7924     38.2350
           11          21      0.3333      0.1333   1070.2290    996.9168     38.2961
           11          22      0.3333      0.1400   1081.0060    962.0408     38.3824
           11          23      0.3333      0.1467   1093.0891    925.1651     38.4997
           11          24      0.3333      0.1533   1106.3834    887.3842     38.6542
           11          25      0.3333      0.1600   1120.7833    849.8551     38.8515
           11          26      0.3333      0.1667   1136.1748    813.7622     39.0969
           11          27      0.3333      0.1733   1152.4385    780.2808     39.3951
           11          28      0.3333      0.1800   1169.4538    750.5432     39.7498
           11          29      0.3333      0.1867   1187.1011    725.6086     40.1637
           11          30      0.3333      0.1933   1205.2656    703.0000     40.6386
           11          31      0.3333      0.2000   1223.8361    703.0000     41.1751
           12           1      0.3667      0.0000   1166.3867    755.4959     39.6826
           12           2      0.3667      0.0067   1149.1482    786.6610     39.3316
           12           3      0.3667      0.0133   1132.7056    821.5281     39.0385
           12           4      0.3667      0.0200   1117.1811    858.9066     38.7992
           12           5      0.3667      0.0267   1102.6939    897.5715     38.6087
           12           6      0.3667      0.0333   1089.3572    936.2996     38.4612
           12           7      0.3667      0.0400   1077.2745    973.9072     38.3505
           12           8      0.3667      0.0467   1066.5376   1009.2852     38.2705
           12           9      0.3667      0.0533   1057.2249   1041.4288     38.2150
           12          10      0.3667      0.0600   1049.4012   1069.4583     38.1783
           12          11      0.3667      0.0667   1043.1194   1092.6300     38.1554
           12          12      0.3667      0.0733   1038.4106   1110.3826     38.1421
           12          13      0.3667      0.0800   1035.2922   1122.3178     38.1350
           12          14      0.3667      0.0867   1033.7738   1128.1805     38.1321
           12          15      0.3667      0.0933   1033.8610   1127.8432     38.1323
           12          16      0.3667      0.1000   1035.5519   1121.3184     38.1356
           12          17      0.3667      0.1067   1038.8377   1108.7588     38.1431
           12          18      0.3667      0.1133   1043.7052   1090.4441     38.1573
           12          19      0.3667      0.1200   1050.1332   1066.7968     38.1814
           12          20      0.3667      0.1267   1058.0862   1038.3998     38.2196
           12          21      0.3667      0.1333   1067.5076   1006.0143     38.2771
           12          22      0.3667      0.1400   1078.3293    970.5303     38.3593
           12          23      0.3667      0.1467   1090.4699    932.9557     38.4724
           12          24      0.3667      0.1533   1103.8354    894.3952     38.6225
           12          25      0.3667      0.1600   1118.3204    856.0195     38.8155
           12          26      0.3667      0.1667   1133.8107    819.0308     39.0569
           12          27      0.3667      0.1733   1150.1866    784.6257     39.3514
           12          28      0.3667      0.1800   1167.3261    753.9597     39.7030
           12          29      0.3667      0.1867   1185.1085    728.1164     40.1146
           12          30      0.3667      0.1933   1203.4172    703.0000     40.5880
           12          31      0.3667      0.2000   1222.1376    703.0000     41.1239
           13           1      0.4000      0.0000   1164.9870    757.8161     39.6524
           13           2      0.4000      0.0067   1147.6746    789.5836     39.3036
           13           3      0.4000      0.0133   1131.1663    825.0434     39.0131
           13           4      0.4000      0.0200   1115.5847    862.9902     38.7767
           13           5      0.4000      0.0267   1101.0492    902.1869     38.5890
           13           6      0.4000      0.0333   1087.6723    941.4014     38.4444
           13           7      0.4000      0.0400   1075.5564    979.4457     38.3366
           13           8      0.4000      0.0467   1064.7910   1015.2114     38.2591
           13           9      0.4000      0.0533   1055.4516   1047.7004     38.2059
           13          10      0.4000      0.0600   1047.5989   1076.0463     38.1712
           13          11      0.4000      0.0667   1041.2797   1099.5267     38.1498
           13          12      0.4000      0.0733   1036.5190   1117.6056     38.1376
           13          13      0.4000      0.0800   1033.3264   1129.9144     38.1313
           13          14      0.4000      0.0867   1031.7018   1247.8594     38.1287
           13          15      0.4000      0.0933   1031.7873   1248.3434     38.1288
           13          16      0.4000      0.1000   1033.5825   1128.9216     38.1318
           13          17      0.4000      0.1067   1036.9412   1115.9890     38.1386
           13          18      0.4000      0.1133   1041.8603   1097.3450     38.1515
           13          19      0.4000      0.1200   1048.3265   1073.3807     38.1740
           13          20      0.4000      0.1267   1056.3113   1044.6540     38.2103
           13          21      0.4000      0.1333   1065.7634   1011.9062     38.2654
           13          22      0.4000      0.1400   1076.6183    976.0167     38.3451
           13          23      0.4000      0.1467   1088.7976    937.9889     38.4556
           13          24      0.4000      0.1533   1102.2087    898.9283     38.6028
           13          25      0.4000      0.1600   1116.7474    860.0116     38.7930
           13          26      0.4000      0.1667   1132.3000    822.4503     39.0318
           13          27      0.4000      0.1733   1148.7465    787.4536     39.3239
           13          28      0.4000      0.1800   1165.9646    756.1916     39.6735
           13          29      0.4000      0.1867   1183.8327    729.7635     40.0835
           13          30      0.4000      0.1933   1202.2332    703.0000     40.5559
           13          31      0.4000      0.2000   1221.0494    703.0000     41.0913
           14           1      0.4333      0.0000   1164.1301    759.2551     39.6341
           14           2      0.4333      0.0067   1146.7724    791.3928     39.2867
           14           3      0.4333      0.0133   1130.2236    827.2171     38.9978
           14           4      0.4333      0.0200   1114.6064    865.5146     38.7630
           14           5      0.4333      0.0267   1100.0402    905.0412     38.5772
           14           6      0.4333      0.0333   1086.6366    944.5606     38.4343
           14           7      0.4333      0.0400   1074.4971    982.8837     38.3282
           14           8      0.4333      0.0467   1063.7095   1018.9048     38.2523
           14           9      0.4333      0.0533   1054.3465   1051.6331     38.2005
           14          10      0.4333      0.0600   1046.4652   1080.2150     38.1669
           14          11      0.4333      0.0667   1040.1075   1103.9475     38.1465
           14          12      0.4333      0.0733   1035.2919   1122.3190     38.1350
           14          13      0.4333      0.0800   1032.0204   1249.6639     38.1292
           14          14      0.4333      0.0867   1030.4395   1240.7503     38.1269
           14          15      0.4333      0.0933   1030.5245   1241.2270     38.1270
           14          16      0.4333      0.1000   1032.2748   1251.1080     38.1296
           14          17      0.4333      0.1067   1035.7140   1120.6950     38.1359
           14          18      0.4333      0.1133   1040.6896   1101.7498     38.1481
           14          19      0.4333      0.1200   1047.1962   1077.5249     38.1696
           14          20      0.4333      0.1267   1055.2115   1048.5535     38.2047
           14          21      0.4333      0.1333   1064.6893   1015.5578     38.2585
           14          22      0.4333      0.1400   1075.5689    979.4050     38.3367
           14          23      0.4333      0.1467   1087.7742    941.0917     38.4454
           14          24      0.4333      0.1533   1101.2144    901.7213     38.5910
           14          25      0.4333      0.1600   1115.7865    862.4717     38.7795
           14          26      0.4333      0.1667   1131.3771    824.5594     39.0166
           14          27      0.4333      0.1733   1147.8667    789.2003     39.3072
           14          28      0.4333      0.1800   1165.1326    757.5731     39.6556
           14          29      0.4333      0.1867   1183.0529    730.7863     40.0646
           14          30      0.4333      0.1933   1201.5094    703.0000     40.5363
           14          31      0.4333      0.2000   1220.3839    703.0000     41.0714
           15           1      0.4667      0.0000   1163.6691    760.0350     39.6243
           15           2      0.4667      0.0067   1146.2872    792.3718     39.2776
           15           3      0.4667      0.0133   1129.7171    828.3915     38.9896
           15           4      0.4667      0.0200   1114.0816    866.8755     38.7558
           15           5      0.4667      0.0267   1099.5002    906.5755     38.5709
           15           6      0.4667      0.0333   1086.0846    946.2518     38.4290
           15           7      0.4667      0.0400   1073.9358    984.7129     38.3238
           15           8      0.4667      0.0467   1063.1414   1020.8520     38.2488
           15           9      0.4667      0.0533   1053.7739   1053.6781     38.1977
           15          10      0.4667      0.0600   1045.8899   1082.3380     38.1648
           15          11      0.4667      0.0667   1039.5309   1106.1292     38.1450
           15          12      0.4667      0.0733   1034.7162   1124.5381     38.1339
           15          13      0.4667      0.0800   1031.4491   1246.4312     38.1283
           15          14      0.4667      0.0867   1029.8714   1237.5716     38.1261
           15          15      0.4667      0.0933   1029.9567   1238.0485     38.1263
           15          16      0.4667      0.1000   1031.7048   1247.8761     38.1287
           15          17      0.4667      0.1067   1035.1404   1122.9024     38.1347
           15          18      0.4667      0.1133   1040.1161   1103.9147     38.1465
           15          19      0.4667      0.1200   1046.6251   1079.6261     38.1675
           15          20      0.4667      0.1267   1054.6442   1050.5719     38.2019
           15          21      0.4667      0.1333   1064.1278   1017.4742     38.2549
           15          22      0.4667      0.1400   1075.0152    981.1998     38.3323
           15          23      0.4667      0.1467   1087.2309    942.7458     38.4401
           15          24      0.4667      0.1533   1100.6844    903.2168     38.5847
           15          25      0.4667      0.1600   1115.2727    863.7935     38.7723
           15          26      0.4667      0.1667   1130.8827    825.6955     39.0085
           15          27      0.4667      0.1733   1147.3947    790.1433     39.2984
           15          28      0.4667      0.1800   1164.6858    758.3204     39.6460
           15          29      0.4667      0.1867   1182.6338    731.3409     40.0545
           15          30      0.4667      0.1933   1201.1202    703.0000     40.5258
           15          31      0.4667      0.2000   1220.0261    703.0000     41.0608
           16           1      0.5000      0.0000   1163.5239    760.2817     39.6212
           16           2      0.5000      0.0067   1146.1344    792.6812     39.2748
           16           3      0.5000      0.0133   1129.5576    828.7623     38.9870
           16           4      0.5000      0.0200   1113.9166    867.3046     38.7535
           16           5      0.5000      0.0267   1099.3306    907.0584     38.5689
           16           6      0.5000      0.0333   1085.9116    946.7827     38.4274
           16           7      0.5000      0.0400   1073.7604    985.2853     38.3225
           16           8      0.5000      0.0467   1062.9647   1021.4587     38.2477
           16           9      0.5000      0.0533   1053.5968   1054.3118     38.1969
           16          10      0.5000      0.0600   1045.7131   1082.9913     38.1642
           16          11      0.5000      0.0667   1039.3552   1106.7950     38.1445
           16          12      0.5000      0.0733   1034.5423   1125.2091     38.1335
           16          13      0.5000      0.0800   1031.2780   1245.4651     38.1280
           16          14      0.5000      0.0867   1029.7016   1236.6241     38.1259
           16          15      0.5000      0.0933   1029.7871   1237.1014     38.1260
           16          16      0.5000      0.1000   1031.5341   1246.9113     38.1284
           16          17      0.5000      0.1067   1034.9675   1123.5688     38.1344
           16          18      0.5000      0.1133   1039.9418   1104.5741     38.1461
           16          19      0.5000      0.1200   1046.4500   1080.2712     38.1669
           16          20      0.5000      0.1267   1054.4691   1051.1959     38.2011
           16          21      0.5000      0.1333   1063.9535   1018.0699     38.2538
           16          22      0.5000      0.1400   1074.8427    981.7601     38.3309
           16          23      0.5000      0.1467   1087.0611    943.2638     38.4385
           16          24      0.5000      0.1533   1100.5183    903.6865     38.5828
           16          25      0.5000      0.1600   1115.1115    864.2094     38.7700
           16          26      0.5000      0.1667   1130.7273    826.0535     39.0060
           16          27      0.5000      0.1733   1147.2462    790.4408     39.2956
           16          28      0.5000      0.1800   1164.5451    758.5565     39.6430
           16          29      0.5000      0.1867   1182.5018    731.5163     40.0513
           16          30      0.5000      0.1933   1200.9976    703.0000     40.5225
           16          31      0.5000      0.2000   1219.9134    703.0000     41.0575
           17           1      0.5333      0.0000   1163.6688    760.0357     39.6243
           17           2      0.5333      0.0067   1146.2868    792.3726     39.2776
           17           3      0.5333      0.0133   1129.7167    828.3924     38.9896
           17           4      0.5333      0.0200   1114.0812    866.8766     38.7558
           17           5      0.5333      0.0267   1099.4998    906.5767     38.5709
           17           6      0.5333      0.0333   1086.0841    946.2531     38.4290
           17           7      0.5333      0.0400   1073.9353    984.7143     38.3238
           17           8      0.5333      0.0467   1063.1410   1020.8535     38.2488
           17           9      0.5333      0.0533   1053.7735   1053.6796     38.1977
           17          10      0.5333      0.0600   1045.8895   1082.3396     38.1648
           17          11      0.5333      0.0667   1039.5305   1106.1308     38.1450
           17          12      0.5333      0.0733   1034.7158   1124.5397     38.1339
           17          13      0.5333      0.0800   1031.4487   1246.4289     38.1283
           17          14      0.5333      0.0867   1029.8710   1237.5694     38.1261
           17          15      0.5333      0.0933   1029.9564   1238.0463     38.1263
           17          16      0.5333      0.1000   1031.7044   1247.8739     38.1287
           17          17      0.5333      0.1067   1035.1400   1122.9039     38.1347
           17          18      0.5333      0.1133   1040.1157   1103.9162     38.1465
           17          19      0.5333      0.1200   1046.6247   1079.6276     38.1675
           17          20      0.5333      0.1267   1054.6438   1050.5733     38.2019
           17          21      0.5333      0.1333   1064.1274   1017.4756     38.2549
           17          22      0.5333      0.1400   1075.0148    981.2011     38.3323
           17          23      0.5333      0.1467   1087.2305    942.7470     38.4401
           17          24      0.5333      0.1533   1100.6840    903.2179     38.5847
           17          25      0.5333      0.1600   1115.2723    863.7945     38.7723
           17          26      0.5333      0.1667   1130.8824    825.6964     39.0085
           17          27      0.5333      0.1733   1147.3943    790.1440     39.2983
           17          28      0.5333      0.1800   1164.6854    758.3210     39.6460
           17          29      0.5333      0.1867   1182.6335    731.3413     40.0545
           17          30      0.5333      0.1933   1201.1199    703.0000     40.5258
           17          31      0.5333      0.2000   1220.0259    703.0000     41.0608
           18           1      0.5667      0.0000   1164.1294    759.2564     39.6341
           18           2      0.5667      0.0067   1146.7716    791.3943     39.2867
           18           3      0.5667      0.0133   1130.2227    827.2190     38.9978
           18           4      0.5667      0.0200   1114.6056    865.5168     38.7630
           18           5      0.5667      0.0267   1100.0393    905.0436     38.5772
           18           6      0.5667      0.0333   1086.6358    944.5633     38.4343
           18           7      0.5667      0.0400   1074.4962    982.8866     38.3282
           18           8      0.5667      0.0467   1063.7086   1018.9078     38.2523
           18           9      0.5667      0.0533   1054.3456   1051.6363     38.2005
           18          10      0.5667      0.0600   1046.4644   1080.2183     38.1669
           18          11      0.5667      0.0667   1040.1066   1103.9508     38.1465
           18          12      0.5667      0.0733   1035.2911   1122.3223     38.1350
           18          13      0.5667      0.0800   1032.0195   1249.6592     38.1291
           18          14      0.5667      0.0867   1030.4387   1240.7457     38.1269
           18          15      0.5667      0.0933   1030.5237   1241.2224     38.1270
           18          16      0.5667      0.1000   1032.2740   1251.1033     38.1295
           18          17      0.5667      0.1067   1035.7132   1120.6982     38.1359
           18          18      0.5667      0.1133   1040.6887   1101.7530     38.1481
           18          19      0.5667      0.1200   1047.1953   1077.5280     38.1696
           18          20      0.5667      0.1267   1055.2106   1048.5565     38.2047
           18          21      0.5667      0.1333   1064.6885   1015.5607     38.2585
           18          22      0.5667      0.1400   1075.5681    979.4077     38.3367
           18          23      0.5667      0.1467   1087.7733    941.0942     38.4454
           18          24      0.5667      0.1533   1101.2136    901.7235     38.5910
           18          25      0.5667      0.1600   1115.7857    862.4737     38.7795
           18          26      0.5667      0.1667   1131.3763    824.5612     39.0166
           18          27      0.5667      0.1733   1147.8660    789.2018     39.3072
           18          28      0.5667      0.1800   1165.1319    757.5742     39.6555
           18          29      0.5667      0.1867   1183.0522    730.7872     40.0646
           18          30      0.5667      0.1933   1201.5088    703.0000     40.5363
           18          31      0.5667      0.2000   1220.3834    703.0000     41.0714
           19           1      0.6000      0.0000   1164.9858    757.8181     39.6524
           19           2      0.6000      0.0067   1147.6733    789.5861     39.3036
           19           3      0.6000      0.0133   1131.1650    825.0463     39.0131
           19           4      0.6000      0.0200   1115.5834    862.9936     38.7766
           19           5      0.6000      0.0267   1101.0479    902.1907     38.5890
           19           6      0.6000      0.0333   1087.6709    941.4056     38.4444
           19           7      0.6000      0.0400   1075.5550    979.4502     38.3366
           19           8      0.6000      0.0467   1064.7896   1015.2162     38.2591
           19           9      0.6000      0.0533   1055.4502   1047.7054     38.2059
           19          10      0.6000      0.0600   1047.5975   1076.0514     38.1712
           19          11      0.6000      0.0667   1041.2783   1099.5319     38.1498
           19          12      0.6000      0.0733   1036.5176   1117.6108     38.1376
           19          13      0.6000      0.0800   1033.3251   1129.9197     38.1313
           19          14      0.6000      0.0867   1031.7005   1247.8518     38.1287
           19          15      0.6000      0.0933   1031.7860   1248.3358     38.1288
           19          16      0.6000      0.1000   1033.5812   1128.9268     38.1318
           19          17      0.6000      0.1067   1036.9398   1115.9941     38.1386
           19          18      0.6000      0.1133   1041.8589   1097.3501     38.1515
           19          19      0.6000      0.1200   1048.3252   1073.3857     38.1740
           19          20      0.6000      0.1267   1056.3099   1044.6588     38.2103
           19          21      0.6000      0.1333   1065.7620   1011.9108     38.2654
           19          22      0.6000      0.1400   1076.6170    976.0210     38.3451
           19          23      0.6000      0.1467   1088.7963    937.9929     38.4555
           19          24      0.6000      0.1533   1102.2074    898.9319     38.6028
           19          25      0.6000      0.1600   1116.7462    860.0147     38.7930
           19          26      0.6000      0.1667   1132.2988    822.4530     39.0317
           19          27      0.6000      0.1733   1148.7454    787.4558     39.3239
           19          28      0.6000      0.1800   1165.9635    756.1934     39.6735
           19          29      0.6000      0.1867   1183.8317    729.7649     40.0835
           19          30      0.6000      0.1933   1202.2323    703.0000     40.5558
           19          31      0.6000      0.2000   1221.0485    703.0000     41.0913
           20           1      0.6333      0.0000   1166.3849    755.4987     39.6826
           20           2      0.6333      0.0067   1149.1464    786.6646     39.3315
           20           3      0.6333      0.0133   1132.7038    821.5324     39.0384
           20           4      0.6333      0.0200   1117.1792    858.9116     38.7992
           20           5      0.6333      0.0267   1102.6919    897.5771     38.6086
           20           6      0.6333      0.0333   1089.3551    936.3057     38.4611
           20           7      0.6333      0.0400   1077.2724    973.9138     38.3505
           20           8      0.6333      0.0467   1066.5355   1009.2922     38.2705
           20           9      0.6333      0.0533   1057.2228   1041.4361     38.2150
           20          10      0.6333      0.0600   1049.3992   1069.4659     38.1783
           20          11      0.6333      0.0667   1043.1173   1092.6377     38.1554
           20          12      0.6333      0.0733   1038.4085   1110.3904     38.1421
           20          13      0.6333      0.0800   1035.2902   1122.3257     38.1350
           20          14      0.6333      0.0867   1033.7718   1128.1884     38.1321
           20          15      0.6333      0.0933   1033.8589   1127.8511     38.1323
           20          16      0.6333      0.1000   1035.5499   1121.3262     38.1355
           20          17      0.6333      0.1067   1038.8357   1108.7665     38.1431
           20          18      0.6333      0.1133   1043.7032   1090.4517     38.1573
           20          19      0.6333      0.1200   1050.1312   1066.8041     38.1814
           20          20      0.6333      0.1267   1058.0842   1038.4069     38.2196
           20          21      0.6333      0.1333   1067.5056   1006.0210     38.2770
           20          22      0.6333      0.1400   1078.3273    970.5366     38.3593
           20          23      0.6333      0.1467   1090.4679    932.9616     38.4724
           20          24      0.6333      0.1533   1103.8335    894.4004     38.6225
           20          25      0.6333      0.1600   1118.3185    856.0241     38.8155
           20          26      0.6333      0.1667   1133.8089    819.0348     39.0569
           20          27      0.6333      0.1733   1150.1849    784.6290     39.3514
           20          28      0.6333      0.1800   1167.3245    753.9623     39.7030
           20          29      0.6333      0.1867   1185.1070    728.1183     40.1146
           20          30      0.6333      0.1933   1203.4158    703.0000     40.5880
           20          31      0.6333      0.2000   1222.1363    703.0000     41.1238
           21           1      0.6667      0.0000   1168.5820    751.9325     39.7305
           21           2      0.6667      0.0067   1151.4600    782.1572     39.3760
           21           3      0.6667      0.0133   1135.1207    816.0988     39.0790
           21           4      0.6667      0.0200   1119.6851    852.5906     38.8353
           21           5      0.6667      0.0267   1105.2719    890.4290     38.6403
           21           6      0.6667      0.0333   1091.9941    928.4082     38.4882
           21           7      0.6667      0.0400   1079.9561    965.3571     38.3732
           21           8      0.6667      0.0467   1069.2507   1000.1739     38.2891
           21           9      0.6667      0.0533   1059.9583   1031.8554     38.2300
           21          10      0.6667      0.0600   1052.1466   1059.5172     38.1902
           21          11      0.6667      0.0667   1045.8719   1082.4043     38.1648
           21          12      0.6667      0.0733   1041.1688   1099.9442     38.1495
           21          13      0.6667      0.0800   1038.0564   1111.7311     38.1412
           21          14      0.6667      0.0867   1036.5442   1117.5091     38.1377
           21          15      0.6667      0.0933   1036.6352   1117.1602     38.1379
           21          16      0.6667      0.1000   1038.3278   1110.6977     38.1419
           21          17      0.6667      0.1067   1041.6148   1098.2670     38.1508
           21          18      0.6667      0.1133   1046.4820   1080.1533     38.1670
           21          19      0.6667      0.1200   1052.9038   1056.7952     38.1936
           21          20      0.6667      0.1267   1060.8369   1028.8027     38.2350
           21          21      0.6667      0.1333   1070.2261    996.9265     38.2961
           21          22      0.6667      0.1400   1081.0032    962.0499     38.3823
           21          23      0.6667      0.1467   1093.0862    925.1735     38.4997
           21          24      0.6667      0.1533   1106.3806    887.3917     38.6542
           21          25      0.6667      0.1600   1120.7806    849.8617     38.8514
           21          26      0.6667      0.1667   1136.1722    813.7679     39.0969
           21          27      0.6667      0.1733   1152.4361    780.2855     39.3950
           21          28      0.6667      0.1800   1169.4514    750.5469     39.7497
           21          29      0.6667      0.1867   1187.0989    725.6113     40.1636
           21          30      0.6667      0.1933   1205.2636    703.0000     40.6385
           21          31      0.6667      0.2000   1223.8342    703.0000     41.1750
           22           1      0.7000      0.0000   1171.9860    746.5911     39.8063
           22           2      0.7000      0.0067   1155.0472    775.3661     39.4466
           22           3      0.7000      0.0133   1138.8729    807.8724     39.1436
           22           4      0.7000      0.0200   1123.5823    842.9788     38.8935
           22           5      0.7000      0.0267   1109.2929    879.5138     38.6915
           22           6      0.7000      0.0333   1096.1173    916.2992     38.5326
           22           7      0.7000      0.0400   1084.1601    952.1858     38.4109
           22           8      0.7000      0.0467   1073.5149    986.0877     38.3206
           22           9      0.7000      0.0533   1064.2627   1017.0133     38.2558
           22          10      0.7000      0.0600   1056.4715   1044.0875     38.2111
           22          11      0.7000      0.0667   1050.1968   1066.5658     38.1817
           22          12      0.7000      0.0733   1045.4835   1083.8407     38.1634
           22          13      0.7000      0.0800   1042.3576   1095.4797     38.1530
           22          14      0.7000      0.0867   1040.8327   1101.2100     38.1485
           22          15      0.7000      0.0933   1040.9137   1100.9049     38.1488
           22          16      0.7000      0.1000   1042.5987   1094.5769     38.1538
           22          17      0.7000      0.1067   1045.8791   1082.3777     38.1648
           22          18      0.7000      0.1133   1050.7376   1064.6050     38.1840
           22          19      0.7000      0.1200   1057.1437   1041.7148     38.2146
           22          20      0.7000      0.1267   1065.0481   1014.3360     38.2608
           22          21      0.7000      0.1333   1074.3916    983.2272     38.3274
           22          22      0.7000      0.1400   1085.1030    949.2708     38.4197
           22          23      0.7000      0.1467   1097.0988    913.4585     38.5435
           22          24      0.7000      0.1533   1110.2833    876.8675     38.7045
           22          25      0.7000      0.1600   1124.5510    840.6311     38.9083
           22          26      0.7000      0.1667   1139.7886    805.9038     39.1597
           22          27      0.7000      0.1733   1155.8782    773.8273     39.4633
           22          28      0.7000      0.1800   1172.7011    745.4974     39.8224
           22          29      0.7000      0.1867   1190.1402    721.9365     40.2397
           22          30      0.7000      0.1933   1208.0835    703.0000     40.7167
           22          31      0.7000      0.2000   1226.4247    703.0000     41.2539
           23           1      0.7333      0.0000   1177.1680    738.8916     39.9249
           23           2      0.7333      0.0067   1160.5133    765.4832     39.5580
           23           3      0.7333      0.0133   1144.5985    795.8136     39.2464
           23           4      0.7333      0.0200   1129.5400    828.8031     38.9867
           23           5      0.7333      0.0267   1115.4533    863.3285     38.7748
           23           6      0.7333      0.0333   1102.4496    898.2542     38.6057
           23           7      0.7333      0.0400   1090.6334    932.4661     38.4741
           23           8      0.7333      0.0467   1080.0990    964.9045     38.3744
           23           9      0.7333      0.0533   1070.9292    994.5951     38.3012
           23          10      0.7333      0.0600   1063.1936   1020.6729     38.2491
           23          11      0.7333      0.0667   1056.9498   1042.3986     38.2136
           23          12      0.7333      0.0733   1052.2439   1059.1669     38.1906
           23          13      0.7333      0.0800   1049.1134   1070.5070     38.1772
           23          14      0.7333      0.0867   1047.5784   1076.1214     38.1711
           23          15      0.7333      0.0933   1047.6466   1075.8712     38.1714
           23          16      0.7333      0.1000   1049.3163   1069.7676     38.1780
           23          17      0.7333      0.1067   1052.5761   1057.9721     38.1921
           23          18      0.7333      0.1133   1057.4022   1040.8042     38.2160
           23          19      0.7333      0.1200   1063.7532   1018.7552     38.2526
           23          20      0.7333      0.1267   1071.5789    992.4474     38.3060
           23          21      0.7333      0.1333   1080.8184    962.6320     38.3807
           23          22      0.7333      0.1400   1091.3987    930.1800     38.4820
           23          23      0.7333      0.1467   1103.2344    896.0646     38.6152
           23          24      0.7333      0.1533   1116.2290    861.3367     38.7857
           23          25      0.7333      0.1600   1130.2768    827.0939     38.9986
           23          26      0.7333      0.1667   1145.2654    794.4481     39.2587
           23          27      0.7333      0.1733   1161.0792    764.4923     39.5698
           23          28      0.7333      0.1800   1177.6021    738.2705     39.9351
           23          29      0.7333      0.1867   1194.7205    716.7530     40.3569
           23          30      0.7333      0.1933   1212.3261    703.0000     40.8365
           23          31      0.7333      0.2000   1230.3200    703.0000     41.3745
           24           1      0.7667      0.0000   1184.8809    728.4079     40.1090
           24           2      0.7667      0.0067   1168.6591    751.8090     39.7322
           24           3      0.7667      0.0133   1153.1469    778.9336     39.4090
           24           4      0.7667      0.0200   1138.4561    808.7738     39.1363
           24           5      0.7667      0.0267   1124.6988    840.2745     38.9105
           24           6      0.7667      0.0333   1111.9846    872.3614     38.7272
           24           7      0.7667      0.0400   1100.4176    903.9716     38.5816
           24           8      0.7667      0.0467   1090.0934    934.0849     38.4686
           24           9      0.7667      0.0533   1081.0971    961.7540     38.3832
           24          10      0.7667      0.0600   1073.5018    986.1304     38.3205
           24          11      0.7667      0.0667   1067.3674   1006.4863     38.2761
           24          12      0.7667      0.0733   1062.7407   1022.2286     38.2463
           24          13      0.7667      0.0800   1059.6558   1032.9093     38.2283
           24          14      0.7667      0.0867   1058.1341   1038.2317     38.2199
           24          15      0.7667      0.0933   1058.1852   1038.0523     38.2202
           24          16      0.7667      0.1000   1059.8073   1032.3814     38.2291
           24          17      0.7667      0.1067   1062.9868   1021.3828     38.2478
           24          18      0.7667      0.1133   1067.6986   1005.3721     38.2784
           24          19      0.7667      0.1200   1073.9049    984.8136     38.3236
           24          20      0.7667      0.1267   1081.5552    960.3133     38.3872
           24          21      0.7667      0.1333   1090.5862    932.6072     38.4736
           24          22      0.7667      0.1400   1100.9220    902.5458     38.5875
           24          23      0.7667      0.1467   1112.4749    871.0721     38.7338
           24          24      0.7667      0.1533   1125.1472    839.1944     38.9174
           24          25      0.7667      0.1600   1138.8337    807.9572     39.1429
           24          26      0.7667      0.1667   1153.4240    778.4092     39.4144
           24          27      0.7667      0.1733   1168.8058    751.5744     39.7355
           24          28      0.7667      0.1800   1184.8676    728.4250     40.1087
           24          29      0.7667      0.1867   1201.5012    703.0000     40.5361
           24          30      0.7667      0.1933   1218.5971    703.0000     41.0185
           24          31      0.7667      0.2000   1236.0729    703.0000     41.5566
           25           1      0.8000      0.0000   1196.0161    715.3637     40.3906
           25           2      0.8000      0.0067   1180.4380    734.3036     40.0019
           25           3      0.8000      0.0133   1165.5326    756.9073     39.6642
           25           4      0.8000      0.0200   1151.4040    782.2651     39.3749
           25           5      0.8000      0.0267   1138.1581    809.4199     39.1311
           25           6      0.8000      0.0333   1125.8997    837.3900     38.9291
           25           7      0.8000      0.0400   1114.7297    865.1956     38.7647
           25           8      0.8000      0.0467   1104.7425    891.8865     38.6337
           25           9      0.8000      0.0533   1096.0238    916.5706     38.5316
           25          10      0.8000      0.0600   1088.6487    938.4393     38.4541
           25          11      0.8000      0.0667   1082.6800    956.7904     38.3973
           25          12      0.8000      0.0733   1078.1678    971.0461     38.3580
           25          13      0.8000      0.0800   1075.1488    980.7665     38.3333
           25          14      0.8000      0.0867   1073.6466    985.6570     38.3216
           25          15      0.8000      0.0933   1073.6721    985.5738     38.3218
           25          16      0.8000      0.1000   1075.2232    980.5252     38.3339
           25          17      0.8000      0.1067   1078.2852    970.6711     38.3589
           25          18      0.8000      0.1133   1082.8306    956.3203     38.3987
           25          19      0.8000      0.1200   1088.8188    937.9246     38.4558
           25          20      0.8000      0.1267   1096.1965    916.0694     38.5335
           25          21      0.8000      0.1333   1104.8973    891.4599     38.6356
           25          22      0.8000      0.1400   1114.8434    864.9017     38.7663
           25          23      0.8000      0.1467   1125.9467    837.2777     38.9298
           25          24      0.8000      0.1533   1138.1111    809.5221     39.1303
           25          25      0.8000      0.1600   1151.2342    782.5926     39.3716
           25          26      0.8000      0.1667   1165.2107    757.4428     39.6572
           25          27      0.8000      0.1733   1179.9342    734.9967     39.9899
           25          28      0.8000      0.1800   1195.3005    716.1268     40.3719
           25          29      0.8000      0.1867   1211.2093    703.0000     40.8047
           25          30      0.8000      0.1933   1227.5674    703.0000     41.2890
           25          31      0.8000      0.2000   1244.2964    703.0000     41.8254
           26           1      0.8333      0.0000   1211.4520    703.0000     40.8116
           26           2      0.8333      0.0067   1196.8016    714.5380     40.4111
           26           3      0.8333      0.0133   1182.7862    731.1388     40.0582
           26           4      0.8333      0.0200   1169.4985    750.4722     39.7508
           26           5      0.8333      0.0267   1157.0338    771.7091     39.4866
           26           6      0.8333      0.0333   1145.4875    793.9953     39.2628
           26           7      0.8333      0.0400   1134.9531    816.4723     39.0761
           26           8      0.8333      0.0467   1125.5194    838.3007     38.9232
           26           9      0.8333      0.0533   1117.2688    858.6837     38.8005
           26          10      0.8333      0.0600   1110.2746    876.8909     38.7044
           26          11      0.8333      0.0667   1104.5999    892.2800     38.6319
           26          12      0.8333      0.0733   1100.2961    904.3155     38.5802
           26          13      0.8333      0.0800   1097.4022    912.5834     38.5469
           26          14      0.8333      0.0867   1095.9439    916.8029     38.5307
           26          15      0.8333      0.0933   1095.9330    916.8345     38.5306
           26          16      0.8333      0.1000   1097.3676    912.6833     38.5466
           26          17      0.8333      0.1067   1100.2316    904.4983     38.5794
           26          18      0.8333      0.1133   1104.4956    892.5681     38.6306
           26          19      0.8333      0.1200   1110.1168    877.3114     38.7023
           26          20      0.8333      0.1267   1117.0403    859.2651     38.7972
           26          21      0.8333      0.1333   1125.2000    839.0676     38.9183
           26          22      0.8333      0.1400   1134.5195    817.4405     39.0688
           26          23      0.8333      0.1467   1144.9146    795.1655     39.2522
           26          24      0.8333      0.1533   1156.2941    773.0620     39.4716
           26          25      0.8333      0.1600   1168.5634    751.9622     39.7301
           26          26      0.8333      0.1667   1181.6258    732.6891     40.0303
           26          27      0.8333      0.1733   1195.3851    716.0360     40.3741
           26          28      0.8333      0.1800   1209.7481    703.0000     40.7634
           26          29      0.8333      0.1867   1224.6258    703.0000     41.1990
           26          30      0.8333      0.1933   1239.9442    703.0000     41.6819
           26          31      0.8333      0.2000   1255.6296    703.0000     42.2122
           27           1      0.8667      0.0000   1231.5938    703.0000     41.4144
           27           2      0.8667      0.0067   1218.2095    703.0000     41.0071
           27           3      0.8667      0.0133   1205.4320    703.0000     40.6432
           27           4      0.8667      0.0200   1193.3276    718.2845     40.3209
           27           5      0.8667      0.0267   1181.9816    732.2109     40.0388
           27           6      0.8667      0.0333   1171.4751    747.3783     39.7948
           27           7      0.8667      0.0400   1161.8886    763.0856     39.5867
           27           8      0.8667      0.0467   1153.2997    778.6443     39.4120
           27           9      0.8667      0.0533   1145.7814    793.3972     39.2682
           27          10      0.8667      0.0600   1139.3998    806.7378     39.1529
           27          11      0.8667      0.0667   1134.2123    818.1286     39.0636
           27          12      0.8667      0.0733   1130.2664    827.1181     38.9985
           27          13      0.8667      0.0800   1127.5981    833.3546     38.9557
           27          14      0.8667      0.0867   1126.2313    836.5982     38.9343
           27          15      0.8667      0.0933   1126.1772    836.7273     38.9334
           27          16      0.8667      0.1000   1127.4337    833.7429     38.9531
           27          17      0.8667      0.1067   1129.9859    827.7676     38.9939
           27          18      0.8667      0.1133   1133.8060    819.0414     39.0568
           27          19      0.8667      0.1200   1138.8543    807.9128     39.1433
           27          20      0.8667      0.1267   1145.0798    794.8273     39.2552
           27          21      0.8667      0.1333   1152.4221    780.3123     39.3948
           27          22      0.8667      0.1400   1160.8120    764.9595     39.5642
           27          23      0.8667      0.1467   1170.1740    749.4065     39.7657
           27          24      0.8667      0.1533   1180.4280    734.3172     40.0017
           27          25      0.8667      0.1600   1191.4915    720.3632     40.2739
           27          26      0.8667      0.1667   1203.2813    703.0000     40.5843
           27          27      0.8667      0.1733   1215.7080    703.0000     40.9339
           27          28      0.8667      0.1800   1228.7034    703.0000     41.3242
           27          29      0.8667      0.1867   1242.1973    703.0000     41.7558
           27          30      0.8667      0.1933   1256.1198    703.0000     42.2294
           27          31      0.8667      0.2000   1270.4016    703.0000     42.7445
           28           1      0.9000      0.0000   1256.0549    703.0000     42.2271
           28           2      0.9000      0.0067   1244.2649    703.0000     41.8244
           28           3      0.9000      0.0133   1233.0488    703.0000     41.4602
           28           4      0.9000      0.0200   1222.4663    703.0000     41.1337
           28           5      0.9000      0.0267   1212.5769    703.0000     40.8437
           28           6      0.9000      0.0333   1203.4382    703.0000     40.5886
           28           7      0.9000      0.0400   1195.1043    716.3379     40.3668
           28           8      0.9000      0.0467   1187.6447    724.9382     40.1772
           28           9      0.9000      0.0533   1181.1177    733.3763     40.0181
           28          10      0.9000      0.0600   1175.5761    741.2011     39.8881
           28          11      0.9000      0.0667   1171.0663    748.0120     39.7856
           28          12      0.9000      0.0733   1167.6267    753.4717     39.7096
           28          13      0.9000      0.0800   1165.2866    757.3163     39.6589
           28          14      0.9000      0.0867   1164.0655    759.3642     39.6327
           28          15      0.9000      0.0933   1163.9722    759.5218     39.6307
           28          16      0.9000      0.1000   1165.0049    757.7862     39.6528
           28          17      0.9000      0.1067   1167.1511    754.2446     39.6992
           28          18      0.9000      0.1133   1170.3877    749.0711     39.7705
           28          19      0.9000      0.1200   1174.6820    742.5200     39.8675
           28          20      0.9000      0.1267   1179.9922    734.9166     39.9913
           28          21      0.9000      0.1333   1186.2690    726.6462     40.1431
           28          22      0.9000      0.1400   1193.4564    718.1412     40.3242
           28          23      0.9000      0.1467   1201.4936    703.0000     40.5359
           28          24      0.9000      0.1533   1210.3057    703.0000     40.7791
           28          25      0.9000      0.1600   1219.8360    703.0000     41.0552
           28          26      0.9000      0.1667   1230.0240    703.0000     41.3652
           28          27      0.9000      0.1733   1240.8075    703.0000     41.7101
           28          28      0.9000      0.1800   1252.1239    703.0000     42.0905
           28          29      0.9000      0.1867   1263.9104    703.0000     42.5067
           28          30      0.9000      0.1933   1276.1050    703.0000     42.9585
           28          31      0.9000      0.2000   1288.6463    703.0000     43.4456
           29           1      0.9333      0.0000   1283.7321    703.0000     43.2521
           29           2      0.9333      0.0067   1273.8531    703.0000     42.8735
           29           3      0.9333      0.0133   1264.4756    703.0000     42.5272
           29           4      0.9333      0.0200   1255.6503    703.0000     42.2129
           29           5      0.9333      0.0267   1247.4268    703.0000     41.9304
           29           6      0.9333      0.0333   1239.8533    703.0000     41.6789
           29           7      0.9333      0.0400   1232.9755    703.0000     41.4579
           29           8      0.9333      0.0467   1226.8371    703.0000     41.2666
           29           9      0.9333      0.0533   1221.4780    703.0000     41.1041
           29          10      0.9333      0.0600   1216.9344    703.0000     40.9697
           29          11      0.9333      0.0667   1213.2380    703.0000     40.8626
           29          12      0.9333      0.0733   1210.4144    703.0000     40.7822
           29          13      0.9333      0.0800   1208.4834    703.0000     40.7279
           29          14      0.9333      0.0867   1207.4576    703.0000     40.6992
           29          15      0.9333      0.0933   1207.3427    703.0000     40.6960
           29          16      0.9333      0.1000   1208.1369    703.0000     40.7182
           29          17      0.9333      0.1067   1209.8314    703.0000     40.7657
           29          18      0.9333      0.1133   1212.4100    703.0000     40.8389
           29          19      0.9333      0.1200   1215.8502    703.0000     40.9381
           29          20      0.9333      0.1267   1220.1229    703.0000     41.0637
           29          21      0.9333      0.1333   1225.1936    703.0000     41.2163
           29          22      0.9333      0.1400   1231.0233    703.0000     41.3965
           29          23      0.9333      0.1467   1237.5694    703.0000     41.6048
           29          24      0.9333      0.1533   1244.7862    703.0000     41.8417
           29          25      0.9333      0.1600   1252.6257    703.0000     42.1078
           29          26      0.9333      0.1667   1261.0384    703.0000     42.4034
           29          27      0.9333      0.1733   1269.9739    703.0000     42.7287
           29          28      0.9333      0.1800   1279.3807    703.0000     43.0836
           29          29      0.9333      0.1867   1289.2075    703.0000     43.4679
           29          30      0.9333      0.1933   1299.4033    703.0000     43.8813
           29          31      0.9333      0.2000   1309.9178    703.0000     44.3231
           30           1      0.9667      0.0000   1313.5994    703.0000     44.4815
           30           2      0.9667      0.0067   1305.8189    703.0000     44.1490
           30           3      0.9667      0.0133   1298.4479    703.0000     43.8420
           30           4      0.9667      0.0200   1291.5243    703.0000     43.5606
           30           5      0.9667      0.0267   1285.0848    703.0000     43.3050
           30           6      0.9667      0.0333   1279.1648    703.0000     43.0753
           30           7      0.9667      0.0400   1273.7974    703.0000     42.8714
           30           8      0.9667      0.0467   1269.0138    703.0000     42.6932
           30           9      0.9667      0.0533   1264.8422    703.0000     42.5405
           30          10      0.9667      0.0600   1261.3076    703.0000     42.4130
           30          11      0.9667      0.0667   1258.4315    703.0000     42.3107
           30          12      0.9667      0.0733   1256.2311    703.0000     42.2333
           30          13      0.9667      0.0800   1254.7197    703.0000     42.1804
           30          14      0.9667      0.0867   1253.9053    703.0000     42.1521
           30          15      0.9667      0.0933   1253.7917    703.0000     42.1482
           30          16      0.9667      0.1000   1254.3774    703.0000     42.1685
           30          17      0.9667      0.1067   1255.6560    703.0000     42.2131
           30          18      0.9667      0.1133   1257.6164    703.0000     42.2819
           30          19      0.9667      0.1200   1260.2431    703.0000     42.3750
           30          20      0.9667      0.1267   1263.5159    703.0000     42.4924
           30          21      0.9667      0.1333   1267.4111    703.0000     42.6342
           30          22      0.9667      0.1400   1271.9014    703.0000     42.8003
           30          23      0.9667      0.1467   1276.9565    703.0000     42.9909
           30          24      0.9667      0.1533   1282.5436    703.0000     43.2058
           30          25      0.9667      0.1600   1288.6278    703.0000     43.4449
           30          26      0.9667      0.1667   1295.1729    703.0000     43.7080
           30          27      0.9667      0.1733   1302.1415    703.0000     43.9949
           30          28      0.9667      0.1800   1309.4953    703.0000     44.3051
           30          29      0.9667      0.1867   1317.1961    703.0000     44.6381
           30          30      0.9667      0.1933   1325.2056    703.0000     44.9932
           30          31      0.9667      0.2000   1333.4863    703.0000     45.3697
           31           1      1.0000      0.0000   1344.5435    703.0000     45.8871
           31           2      1.0000      0.0067   1338.9590    703.0000     45.6237
           31           3      1.0000      0.0133   1333.6771    703.0000     45.3785
           31           4      1.0000      0.0200   1328.7224    703.0000     45.1519
           31           5      1.0000      0.0267   1324.1194    703.0000     44.9445
           31           6      1.0000      0.0333   1319.8914    703.0000     44.7566
           31           7      1.0000      0.0400   1316.0608    703.0000     44.5884
           31           8      1.0000      0.0467   1312.6488    703.0000     44.4404
           31           9      1.0000      0.0533   1309.6743    703.0000     44.3127
           31          10      1.0000      0.0600   1307.1543    703.0000     44.2055
           31          11      1.0000      0.0667   1305.1033    703.0000     44.1189
           31          12      1.0000      0.0733   1303.5331    703.0000     44.0530
           31          13      1.0000      0.0800   1302.4524    703.0000     44.0079
           31          14      1.0000      0.0867   1301.8669    703.0000     43.9835
           31          15      1.0000      0.0933   1301.7789    703.0000     43.9798
           31          16      1.0000      0.1000   1302.1872    703.0000     43.9968
           31          17      1.0000      0.1067   1303.0876    703.0000     44.0344
           31          18      1.0000      0.1133   1304.4724    703.0000     44.0924
           31          19      1.0000      0.1200   1306.3308    703.0000     44.1707
           31          20      1.0000      0.1267   1308.6491    703.0000     44.2690
           31          21      1.0000      0.1333   1311.4109    703.0000     44.3871
           31          22      1.0000      0.1400   1314.5975    703.0000     44.5248
           31          23      1.0000      0.1467   1318.1880    703.0000     44.6815
           31          24      1.0000      0.1533   1322.1599    703.0000     44.8571
           31          25      1.0000      0.1600   1326.4891    703.0000     45.0509
           31          26      1.0000      0.1667   1331.1506    703.0000     45.2625
           31          27      1.0000      0.1733   1336.1185    703.0000     45.4913
           31          28      1.0000      0.1800   1341.3667    703.0000     45.7368
           31          29      1.0000      0.1867   1346.8687    703.0000     45.9981
           31          30      1.0000      0.1933   1352.5981    703.0000     46.2745
           31          31      1.0000      0.2000   1358.5289    703.0000     46.5654
