 ====================================================================================
               Transient state solution for a 2D rectangular plate
                    for applications in steel reheating
                 e.g. Reheating furnaces for rolling processing
 ====================================================================================
 Author: Dickson Alves de Souza

 Based on lectures by professor Roberto Parreiras Tavares

 and book Numerical Heat Transfer and Fluid Flow
 by Suhas V. Patankar (1980)

 Federal University of Minas Gerais (UFMG)
 October 26th, 2017
 ====================================================================================
                              Input parameters:

 Lenght in X direction (meters):           1.0000
 Lenght in Y direction (meters):           0.2000
 Nodes in X direction:                         31
 Nodes in Y direction:                         31
 ====================================================================================

                       STAGE                1/  5
                       START Time:         0.0000
                       END Time:        1140.0000
                       Iterations:              123

 ====================================================================================
 Temperature of fluid at left face (T left):             1223.1500
 Temperature of fluid at right face (T right):           1223.1500
 Temperature of fluid at bottom face (T bottom):         1223.1500
 Temperature of fluid at top face (T top):               1223.1500
 ------------------------------------------------------------------------------------
 Heat transfer coefficient at left face (H left):          50.0000
 Heat transfer coefficient at right face (H right):        50.0000
 Heat transfer coefficient at bottom face (H bottom):       8.0000
 Heat transfer coefficient at top face (H top):           150.0000
 ====================================================================================


 SOLUTION of LINEAR SYSTEM: TDMA (tri-diagonal matrix algorithm)
      ADI approach employed in solution.
 Tolerance:       0.0010

 ====================================================================================
                    Calculation Results
 Current time:    400.00000000000000       seconds
 Maximum Temperature :    723.70648270294726
 Minimum Temperature :    405.39463913314273
 Average(algebraic, non-weigthed) Temperature :    472.70625789216029
 ====================================================================================
            I           J        X(m)        Y(m)        T(K)  Cp(J/kg.K) K(W/sq-m.K)
 ====================================================================================
            1           1      0.0000      0.0000    623.2660    600.3678     47.9593
            1           2      0.0000      0.0067    611.8536    594.9265     48.4561
            1           3      0.0000      0.0133    601.7633    589.8429     48.9007
            1           4      0.0000      0.0200    592.9008    585.1644     49.2949
            1           5      0.0000      0.0267    585.1830    580.9283     49.6408
            1           6      0.0000      0.0333    578.5327    577.1592     49.9406
            1           7      0.0000      0.0400    572.8814    573.8719     50.1966
            1           8      0.0000      0.0467    568.1718    571.0748     50.4107
            1           9      0.0000      0.0533    564.3568    568.7716     50.5847
            1          10      0.0000      0.0600    561.3988    566.9634     50.7199
            1          11      0.0000      0.0667    559.2691    565.6497     50.8173
            1          12      0.0000      0.0733    557.9473    564.8296     50.8779
            1          13      0.0000      0.0800    557.4216    564.5023     50.9020
            1          14      0.0000      0.0867    557.6880    564.6682     50.8898
            1          15      0.0000      0.0933    558.7504    565.3284     50.8411
            1          16      0.0000      0.1000    560.6211    566.4849     50.7554
            1          17      0.0000      0.1067    563.3206    568.1404     50.6320
            1          18      0.0000      0.1133    566.8780    570.2974     50.4697
            1          19      0.0000      0.1200    571.3320    572.9574     50.2670
            1          20      0.0000      0.1267    576.7312    576.1196     50.0221
            1          21      0.0000      0.1333    583.1348    579.7791     49.7329
            1          22      0.0000      0.1400    590.6144    583.9251     49.3971
            1          23      0.0000      0.1467    599.2540    588.5385     49.0120
            1          24      0.0000      0.1533    609.1427    593.5861     48.5751
            1          25      0.0000      0.1600    620.3837    599.0240     48.0841
            1          26      0.0000      0.1667    633.0940    604.7998     47.5368
            1          27      0.0000      0.1733    647.4052    610.8598     46.9314
            1          28      0.0000      0.1800    663.4620    617.1659     46.2673
            1          29      0.0000      0.1867    681.4213    623.7285     45.5449
            1          30      0.0000      0.1933    701.4475    630.6677     44.7674
            1          31      0.0000      0.2000    723.7065    638.3169     43.9409
            2           1      0.0333      0.0000    562.2095    567.4609     50.6828
            2           2      0.0333      0.0067    551.1621    560.5622     51.1894
            2           3      0.0333      0.0133    541.3522    554.2350     51.6417
            2           4      0.0333      0.0200    532.7025    548.5191     52.0421
            2           5      0.0333      0.0267    525.1419    543.4335     52.3929
            2           6      0.0333      0.0333    518.6065    538.9820     52.6967
            2           7      0.0333      0.0400    513.0400    535.1581     52.9558
            2           8      0.0333      0.0467    508.3941    531.9490     53.1722
            2           9      0.0333      0.0533    504.6283    529.3393     53.3477
            2          10      0.0333      0.0600    501.7100    527.3132     53.4837
            2          11      0.0333      0.0667    499.6142    525.8569     53.5814
            2          12      0.0333      0.0733    498.3235    524.9597     53.6415
            2          13      0.0333      0.0800    497.8278    524.6151     53.6646
            2          14      0.0333      0.0867    498.1246    524.8214     53.6508
            2          15      0.0333      0.0933    499.2190    525.5821     53.5998
            2          16      0.0333      0.1000    501.1235    526.9057     53.5110
            2          17      0.0333      0.1067    503.8587    528.8053     53.3835
            2          18      0.0333      0.1133    507.4538    531.2980     53.2160
            2          19      0.0333      0.1200    511.9463    534.4039     53.0068
            2          20      0.0333      0.1267    517.3836    538.1442     52.7536
            2          21      0.0333      0.1333    523.8232    542.5390     52.4542
            2          22      0.0333      0.1400    531.3334    547.6039     52.1055
            2          23      0.0333      0.1467    539.9950    553.3461     51.7045
            2          24      0.0333      0.1533    549.9014    559.7592     51.2475
            2          25      0.0333      0.1600    561.1609    566.8172     50.7308
            2          26      0.0333      0.1667    573.8972    574.4685     50.1505
            2          27      0.0333      0.1733    588.2514    582.6304     49.5030
            2          28      0.0333      0.1800    604.3822    591.1872     48.7849
            2          29      0.0333      0.1867    622.4661    599.9969     47.9939
            2          30      0.0333      0.1933    642.6961    608.9149     47.1293
            2          31      0.0333      0.2000    665.2776    617.8503     46.1932
            3           1      0.0667      0.0000    524.7856    543.1920     52.4095
            3           2      0.0667      0.0067    513.9393    535.7776     52.9140
            3           3      0.0667      0.0133    504.2839    529.1003     53.3637
            3           4      0.0667      0.0200    495.7499    523.1705     53.7614
            3           5      0.0667      0.0267    488.2743    517.9785     54.1097
            3           6      0.0667      0.0333    481.8010    513.5016     54.4111
            3           7      0.0667      0.0400    476.2806    509.7094     54.6678
            3           8      0.0667      0.0467    471.6712    506.5685     54.8819
            3           9      0.0667      0.0533    467.9379    504.0457     55.0551
            3          10      0.0667      0.0600    465.0525    502.1112     55.1888
            3          11      0.0667      0.0667    462.9939    500.7400     55.2841
            3          12      0.0667      0.0733    461.7478    499.9140     55.3418
            3          13      0.0667      0.0800    461.3067    499.6223     55.3622
            3          14      0.0667      0.0867    461.6698    499.8624     55.3454
            3          15      0.0667      0.0933    462.8435    500.6402     55.2911
            3          16      0.0667      0.1000    464.8414    501.9702     55.1986
            3          17      0.0667      0.1067    467.6841    503.8751     55.0669
            3          18      0.0667      0.1133    471.4007    506.3850     54.8945
            3          19      0.0667      0.1200    476.0282    509.5368     54.6795
            3          20      0.0667      0.1267    481.6127    513.3718     54.4199
            3          21      0.0667      0.1333    488.2102    517.9340     54.1127
            3          22      0.0667      0.1400    495.8871    523.2658     53.7551
            3          23      0.0667      0.1467    504.7217    529.4041     53.3433
            3          24      0.0667      0.1533    514.8052    536.3735     52.8736
            3          25      0.0667      0.1600    526.2429    544.1787     52.3418
            3          26      0.0667      0.1667    539.1558    552.7950     51.7433
            3          27      0.0667      0.1733    553.6816    562.1577     51.0736
            3          28      0.0667      0.1800    569.9756    572.1522     50.3286
            3          29      0.0667      0.1867    588.2112    582.6082     49.5048
            3          30      0.0667      0.1933    608.5780    593.3045     48.5999
            3          31      0.0667      0.2000    631.2788    603.9983     47.6144
            4           1      0.1000      0.0000    501.8284    527.3954     53.4782
            4           2      0.1000      0.0067    491.1087    519.9453     53.9777
            4           3      0.1000      0.0133    481.5480    513.3272     54.4229
            4           4      0.1000      0.0200    473.0838    507.5282     54.8163
            4           5      0.1000      0.0267    465.6593    502.5169     55.1607
            4           6      0.1000      0.0333    459.2241    498.2506     55.4585
            4           7      0.1000      0.0400    453.7341    494.6815     55.7119
            4           8      0.1000      0.0467    449.1519    491.7608     55.9229
            4           9      0.1000      0.0533    445.4464    489.4426     56.0931
            4          10      0.1000      0.0600    442.5930    487.6867     56.2240
            4          11      0.1000      0.0667    440.5735    486.4602     56.3165
            4          12      0.1000      0.0733    439.3757    485.7395     56.3713
            4          13      0.1000      0.0800    438.9942    485.5110     56.3887
            4          14      0.1000      0.0867    439.4297    485.7719     56.3688
            4          15      0.1000      0.0933    440.6894    486.5302     56.3112
            4          16      0.1000      0.1000    442.7873    487.8054     56.2151
            4          17      0.1000      0.1067    445.7445    489.6276     56.0795
            4          18      0.1000      0.1133    449.5895    492.0372     55.9028
            4          19      0.1000      0.1200    454.3585    495.0838     55.6831
            4          20      0.1000      0.1267    460.0965    498.8241     55.4182
            4          21      0.1000      0.1333    466.8577    503.3199     55.1052
            4          22      0.1000      0.1400    474.7062    508.6337     54.7410
            4          23      0.1000      0.1467    483.7176    514.8243     54.3219
            4          24      0.1000      0.1533    493.9797    521.9399     53.8439
            4          25      0.1000      0.1600    505.5938    530.0090     53.3027
            4          26      0.1000      0.1667    518.6762    539.0297     52.6935
            4          27      0.1000      0.1733    533.3596    548.9574     52.0116
            4          28      0.1000      0.1800    549.7937    559.6904     51.2524
            4          29      0.1000      0.1867    568.1454    571.0590     50.4119
            4          30      0.1000      0.1933    588.5985    582.8214     49.4874
            4          31      0.1000      0.2000    611.3494    594.6786     48.4783
            5           1      0.1333      0.0000    487.7925    517.6444     54.1322
            5           2      0.1333      0.0067    477.1510    510.3054     54.6274
            5           3      0.1333      0.0133    467.6491    503.8515     55.0685
            5           4      0.1333      0.0200    459.2288    498.2538     55.4583
            5           5      0.1333      0.0267    451.8376    493.4658     55.7993
            5           6      0.1333      0.0333    445.4288    489.4317     56.0939
            5           7      0.1333      0.0400    439.9619    486.0916     56.3444
            5           8      0.1333      0.0467    435.4022    483.3862     56.5527
            5           9      0.1333      0.0533    431.7216    481.2610     56.7203
            5          10      0.1333      0.0600    428.8975    479.6685     56.8487
            5          11      0.1333      0.0667    426.9137    478.5708     56.9386
            5          12      0.1333      0.0733    425.7596    477.9404     56.9909
            5          13      0.1333      0.0800    425.4308    477.7620     57.0058
            5          14      0.1333      0.0867    425.9291    478.0326     56.9832
            5          15      0.1333      0.0933    427.2622    478.7623     56.9228
            5          16      0.1333      0.1000    429.4444    479.9742     56.8238
            5          17      0.1333      0.1067    432.4967    481.7039     56.6851
            5          18      0.1333      0.1133    436.4471    483.9992     56.5050
            5          19      0.1333      0.1200    441.3312    486.9188     56.2818
            5          20      0.1333      0.1267    447.1929    490.5301     56.0129
            5          21      0.1333      0.1333    454.0847    494.9073     55.6957
            5          22      0.1333      0.1400    462.0690    500.1266     55.3269
            5          23      0.1333      0.1467    471.2189    506.2618     54.9029
            5          24      0.1333      0.1533    481.6195    513.3765     54.4195
            5          25      0.1333      0.1600    493.3688    521.5154     53.8724
            5          26      0.1333      0.1667    506.5796    530.6924     53.2568
            5          27      0.1333      0.1733    521.3802    540.8768     52.5677
            5          28      0.1333      0.1800    537.9156    551.9783     51.8006
            5          29      0.1333      0.1867    556.3483    563.8324     50.9512
            5          30      0.1333      0.1933    576.8566    576.1923     50.0164
            5          31      0.1333      0.2000    599.6322    588.7362     48.9952
            6           1      0.1667      0.0000    479.2647    511.7557     54.5291
            6           2      0.1667      0.0067    468.6711    504.5395     55.0211
            6           3      0.1667      0.0133    459.2057    498.2386     55.4593
            6           4      0.1667      0.0200    450.8134    492.8133     55.8464
            6           5      0.1667      0.0267    443.4444    488.2079     56.1850
            6           6      0.1667      0.0333    437.0544    484.3575     56.4773
            6           7      0.1667      0.0400    431.6050    481.1946     56.7256
            6           8      0.1667      0.0467    427.0636    478.6531     56.9318
            6           9      0.1667      0.0533    423.4035    476.6729     57.0975
            6          10      0.1667      0.0600    420.6036    475.2017     57.2238
            6          11      0.1667      0.0667    418.6487    474.1981     57.3119
            6          12      0.1667      0.0733    417.5294    473.6325     57.3622
            6          13      0.1667      0.0800    417.2420    473.4883     57.3752
            6          14      0.1667      0.0867    417.7886    473.7629     57.3506
            6          15      0.1667      0.0933    419.1773    474.4676     57.2881
            6          16      0.1667      0.1000    421.4226    475.6280     57.1869
            6          17      0.1667      0.1067    424.5452    477.2838     57.0459
            6          18      0.1667      0.1133    428.5729    479.4877     56.8634
            6          19      0.1667      0.1200    433.5406    482.3044     56.6375
            6          20      0.1667      0.1267    439.4912    485.8088     56.3660
            6          21      0.1667      0.1333    446.4763    490.0828     56.0459
            6          22      0.1667      0.1400    454.5569    495.2118     55.6740
            6          23      0.1667      0.1467    463.8043    501.2789     55.2466
            6          24      0.1667      0.1533    474.3018    508.3578     54.7598
            6          25      0.1667      0.1600    486.1451    516.5032     54.2089
            6          26      0.1667      0.1667    499.4443    525.7388     53.5893
            6          27      0.1667      0.1733    514.3250    536.0431     52.8960
            6          28      0.1667      0.1800    530.9291    547.3331     52.1243
            6          29      0.1667      0.1867    549.4155    559.4488     51.2698
            6          30      0.1667      0.1933    569.9593    572.1425     50.3294
            6          31      0.1667      0.2000    592.7487    585.0823     49.3017
            7           1      0.2000      0.0000    474.1238    508.2365     54.7680
            7           2      0.2000      0.0067    463.5593    501.1158     55.2580
            7           3      0.2000      0.0133    454.1164    494.9277     55.6943
            7           4      0.2000      0.0200    445.7419    489.6260     56.0796
            7           5      0.2000      0.0267    438.3876    485.1488     56.4164
            7           6      0.2000      0.0333    432.0108    481.4259     56.7072
            7           7      0.2000      0.0400    426.5742    478.3847     56.9540
            7           8      0.2000      0.0467    422.0465    475.9550     57.1588
            7           9      0.2000      0.0533    418.4019    474.0728     57.3230
            7          10      0.2000      0.0600    415.6202    472.6833     57.4480
            7          11      0.2000      0.0667    413.6870    471.7426     57.5347
            7          12      0.2000      0.0733    412.5932    471.2197     57.5836
            7          13      0.2000      0.0800    412.3357    471.0976     57.5952
            7          14      0.2000      0.0867    412.9168    471.3737     57.5692
            7          15      0.2000      0.0933    414.3448    472.0603     57.5052
            7          16      0.2000      0.1000    416.6341    473.1849     57.4025
            7          17      0.2000      0.1067    419.8054    474.7896     57.2598
            7          18      0.2000      0.1133    423.8861    476.9303     57.0757
            7          19      0.2000      0.1200    428.9106    479.6758     56.8481
            7          20      0.2000      0.1267    434.9215    483.1055     56.5746
            7          21      0.2000      0.1333    441.9695    487.3065     56.2526
            7          22      0.2000      0.1400    450.1146    492.3697     55.8786
            7          23      0.2000      0.1467    459.4272    498.3840     55.4491
            7          24      0.2000      0.1533    469.9891    505.4293     54.9600
            7          25      0.2000      0.1600    481.8948    513.5663     54.4067
            7          26      0.2000      0.1667    495.2527    522.8248     53.7846
            7          27      0.2000      0.1733    510.1866    533.1888     53.0887
            7          28      0.2000      0.1800    526.8365    544.5798     52.3142
            7          29      0.2000      0.1867    545.3594    556.8409     51.4567
            7          30      0.2000      0.1933    565.9281    569.7242     50.5130
            7          31      0.2000      0.2000    588.7286    582.8930     49.4816
            8           1      0.2333      0.0000    471.0503    506.1475     54.9107
            8           2      0.2333      0.0067    460.5032    499.0920     55.3994
            8           3      0.2333      0.0133    451.0740    492.9791     55.8344
            8           4      0.2333      0.0200    442.7107    487.7586     56.2186
            8           5      0.2333      0.0267    435.3660    483.3650     56.5544
            8           6      0.2333      0.0333    428.9980    479.7246     56.8441
            8           7      0.2333      0.0400    423.5704    476.7618     57.0899
            8           8      0.2333      0.0467    419.0524    474.4038     57.2937
            8           9      0.2333      0.0533    415.4189    472.5843     57.4570
            8          10      0.2333      0.0600    412.6501    471.2467     57.5811
            8          11      0.2333      0.0667    410.7320    470.3460     57.6668
            8          12      0.2333      0.0733    409.6559    469.8502     57.7149
            8          13      0.2333      0.0800    409.4188    469.7419     57.7255
            8          14      0.2333      0.0867    410.0233    470.0187     57.6985
            8          15      0.2333      0.0933    411.4777    470.6936     57.6335
            8          16      0.2333      0.1000    413.7963    471.7952     57.5298
            8          17      0.2333      0.1067    416.9998    473.3672     57.3860
            8          18      0.2333      0.1133    421.1153    475.4677     57.2008
            8          19      0.2333      0.1200    426.1772    478.1678     56.9720
            8          20      0.2333      0.1267    432.2273    481.5497     56.6973
            8          21      0.2333      0.1333    439.3161    485.7038     56.3740
            8          22      0.2333      0.1400    447.5030    490.7242     55.9987
            8          23      0.2333      0.1467    456.8578    496.7036     55.5678
            8          24      0.2333      0.1533    467.4614    503.7253     55.0772
            8          25      0.2333      0.1600    479.4075    511.8539     54.5224
            8          26      0.2333      0.1667    492.8035    521.1226     53.8987
            8          27      0.2333      0.1733    507.7723    531.5185     53.2012
            8          28      0.2333      0.1800    524.4527    542.9662     52.4249
            8          29      0.2333      0.1867    543.0005    555.3103     51.5656
            8          30      0.2333      0.1933    563.5875    568.3032     50.6198
            8          31      0.2333      0.2000    586.3987    581.6055     49.5861
            9           1      0.2667      0.0000    469.2276    504.9149     54.9953
            9           2      0.2667      0.0067    458.6908    497.9009     55.4831
            9           3      0.2667      0.0133    449.2700    491.8354     55.9175
            9           4      0.2667      0.0200    440.9136    486.6658     56.3009
            9           5      0.2667      0.0267    433.5750    482.3243     56.6360
            9           6      0.2667      0.0333    427.2128    478.7352     56.9251
            9           7      0.2667      0.0400    421.7912    475.8209     57.1703
            9           8      0.2667      0.0467    417.2797    473.5072     57.3735
            9           9      0.2667      0.0533    413.6536    471.7265     57.5362
            9          10      0.2667      0.0600    410.8935    470.4210     57.6596
            9          11      0.2667      0.0667    408.9854    469.5448     57.7448
            9          12      0.2667      0.0733    407.9211    469.0657     57.7922
            9          13      0.2667      0.0800    407.6974    468.9659     57.8022
            9          14      0.2667      0.0867    408.3171    469.2431     57.7746
            9          15      0.2667      0.0933    409.7886    469.9110     57.7090
            9          16      0.2667      0.1000    412.1262    470.9986     57.6045
            9          17      0.2667      0.1067    415.3503    472.5507     57.4601
            9          18      0.2667      0.1133    419.4881    474.6266     57.2741
            9          19      0.2667      0.1200    424.5736    477.2991     57.0446
            9          20      0.2667      0.1267    430.6486    480.6519     56.7691
            9          21      0.2667      0.1333    437.7631    484.7773     56.4450
            9          22      0.2667      0.1400    445.9764    489.7716     56.0688
            9          23      0.2667      0.1467    455.3576    495.7295     55.6370
            9          24      0.2667      0.1533    465.9873    502.7364     55.1455
            9          25      0.2667      0.1600    477.9587    510.8590     54.5898
            9          26      0.2667      0.1667    491.3786    520.1327     53.9651
            9          27      0.2667      0.1733    506.3691    530.5465     53.2666
            9          28      0.2667      0.1800    523.0686    542.0263     52.4893
            9          29      0.2667      0.1867    541.6320    554.4179     51.6288
            9          30      0.2667      0.1933    562.2304    567.4737     50.6818
            9          31      0.2667      0.2000    585.0480    580.8528     49.6468
           10           1      0.3000      0.0000    468.1550    504.1918     55.0450
           10           2      0.3000      0.0067    457.6244    497.2034     55.5324
           10           3      0.3000      0.0133    448.2085    491.1668     55.9663
           10           4      0.3000      0.0200    439.8563    486.0281     56.3493
           10           5      0.3000      0.0267    432.5215    481.7181     56.6839
           10           6      0.3000      0.0333    426.1630    478.1600     56.9726
           10           7      0.3000      0.0400    420.7451    475.2752     57.2175
           10           8      0.3000      0.0467    416.2379    472.9882     57.4203
           10           9      0.3000      0.0533    412.6167    471.2308     57.5826
           10          10      0.3000      0.0600    409.8621    469.9447     57.7057
           10          11      0.3000      0.0667    407.9606    469.0833     57.7905
           10          12      0.3000      0.0733    406.9037    468.6142     57.8375
           10          13      0.3000      0.0800    406.6886    468.5196     57.8471
           10          14      0.3000      0.0867    407.3180    468.7973     57.8191
           10          15      0.3000      0.0933    408.8003    469.4610     57.7530
           10          16      0.3000      0.1000    411.1497    470.5403     57.6482
           10          17      0.3000      0.1067    414.3867    472.0806     57.5033
           10          18      0.3000      0.1133    418.5383    474.1420     57.3169
           10          19      0.3000      0.1200    423.6385    476.7981     57.0869
           10          20      0.3000      0.1267    429.7289    480.1337     56.8109
           10          21      0.3000      0.1333    436.8593    484.2422     56.4862
           10          22      0.3000      0.1400    445.0887    489.2211     56.1096
           10          23      0.3000      0.1467    454.4861    495.1661     55.6772
           10          24      0.3000      0.1533    465.1318    502.1642     55.1852
           10          25      0.3000      0.1600    477.1186    510.2832     54.6289
           10          26      0.3000      0.1667    490.5531    519.5595     54.0036
           10          27      0.3000      0.1733    505.5569    529.9834     53.3044
           10          28      0.3000      0.1800    522.2679    541.4816     52.5265
           10          29      0.3000      0.1867    540.8408    553.9004     51.6654
           10          30      0.3000      0.1933    561.4460    566.9924     50.7177
           10          31      0.3000      0.2000    584.2674    580.4158     49.6819
           11           1      0.3333      0.0000    467.5286    503.7705     55.0741
           11           2      0.3333      0.0067    457.0016    496.7972     55.5612
           11           3      0.3333      0.0133    447.5887    490.7778     55.9948
           11           4      0.3333      0.0200    439.2390    485.6576     56.3775
           11           5      0.3333      0.0267    431.9064    481.3664     56.7119
           11           6      0.3333      0.0333    425.5502    477.8267     57.0004
           11           7      0.3333      0.0400    420.1348    474.9593     57.2450
           11           8      0.3333      0.0467    415.6302    472.6882     57.4475
           11           9      0.3333      0.0533    412.0120    470.9447     57.6096
           11          10      0.3333      0.0600    409.2610    469.6700     57.7325
           11          11      0.3333      0.0667    407.3635    468.8175     57.8170
           11          12      0.3333      0.0733    406.3113    468.3544     57.8638
           11          13      0.3333      0.0800    406.1016    468.2629     57.8732
           11          14      0.3333      0.0867    406.7369    468.5409     57.8449
           11          15      0.3333      0.0933    408.2258    469.2021     57.7786
           11          16      0.3333      0.1000    410.5825    470.2767     57.6735
           11          17      0.3333      0.1067    413.8273    471.8102     57.5284
           11          18      0.3333      0.1133    417.9874    473.8631     57.3416
           11          19      0.3333      0.1200    423.0965    476.5097     57.1113
           11          20      0.3333      0.1267    429.1962    479.8353     56.8351
           11          21      0.3333      0.1333    436.3362    483.9340     56.5101
           11          22      0.3333      0.1400    444.5754    488.9038     56.1331
           11          23      0.3333      0.1467    453.9826    494.8415     55.7004
           11          24      0.3333      0.1533    464.6379    501.8344     55.2080
           11          25      0.3333      0.1600    476.6340    509.9513     54.6514
           11          26      0.3333      0.1667    490.0772    519.2292     54.0258
           11          27      0.3333      0.1733    505.0889    529.6588     53.3262
           11          28      0.3333      0.1800    521.8068    541.1676     52.5479
           11          29      0.3333      0.1867    540.3853    553.6021     51.6864
           11          30      0.3333      0.1933    560.9946    566.7148     50.7384
           11          31      0.3333      0.2000    583.8181    580.1636     49.7022
           12           1      0.3667      0.0000    467.1660    503.5268     55.0909
           12           2      0.3667      0.0067    456.6411    496.5626     55.5778
           12           3      0.3667      0.0133    447.2299    490.5533     56.0112
           12           4      0.3667      0.0200    438.8817    485.4437     56.3938
           12           5      0.3667      0.0267    431.5505    481.1636     56.7281
           12           6      0.3667      0.0333    425.1957    477.6346     57.0164
           12           7      0.3667      0.0400    419.7817    474.7774     57.2609
           12           8      0.3667      0.0467    415.2788    472.5156     57.4633
           12           9      0.3667      0.0533    411.6625    470.7802     57.6253
           12          10      0.3667      0.0600    408.9136    469.5122     57.7480
           12          11      0.3667      0.0667    407.0186    468.6649     57.8324
           12          12      0.3667      0.0733    405.9693    468.2054     57.8791
           12          13      0.3667      0.0800    405.7627    468.1157     57.8882
           12          14      0.3667      0.0867    406.4017    468.3939     57.8598
           12          15      0.3667      0.0933    407.8945    469.0538     57.7934
           12          16      0.3667      0.1000    410.2556    470.1256     57.6881
           12          17      0.3667      0.1067    413.5052    471.6552     57.5428
           12          18      0.3667      0.1133    417.6703    473.7033     57.3559
           12          19      0.3667      0.1200    422.7847    476.3444     57.1254
           12          20      0.3667      0.1267    428.8900    479.6643     56.8490
           12          21      0.3667      0.1333    436.0357    483.7574     56.5238
           12          22      0.3667      0.1400    444.2807    488.7221     56.1466
           12          23      0.3667      0.1467    453.6937    494.6555     55.7138
           12          24      0.3667      0.1533    464.3547    501.6455     55.2211
           12          25      0.3667      0.1600    476.3562    509.7612     54.6643
           12          26      0.3667      0.1667    489.8045    519.0399     54.0385
           12          27      0.3667      0.1733    504.8210    529.4729     53.3387
           12          28      0.3667      0.1800    521.5429    540.9878     52.5602
           12          29      0.3667      0.1867    540.1247    553.4312     51.6985
           12          30      0.3667      0.1933    560.7363    566.5558     50.7502
           12          31      0.3667      0.2000    583.5612    580.0192     49.7137
           13           1      0.4000      0.0000    466.9591    503.3879     55.1005
           13           2      0.4000      0.0067    456.4354    496.4288     55.5873
           13           3      0.4000      0.0133    447.0252    490.4253     56.0206
           13           4      0.4000      0.0200    438.6778    485.3219     56.4032
           13           5      0.4000      0.0267    431.3475    481.0481     56.7374
           13           6      0.4000      0.0333    424.9934    477.5253     57.0256
           13           7      0.4000      0.0400    419.5804    474.6740     57.2699
           13           8      0.4000      0.0467    415.0784    472.4175     57.4723
           13           9      0.4000      0.0533    411.4632    470.6868     57.6342
           13          10      0.4000      0.0600    408.7156    469.4227     57.7568
           13          11      0.4000      0.0667    406.8221    468.5783     57.8411
           13          12      0.4000      0.0733    405.7744    468.1208     57.8877
           13          13      0.4000      0.0800    405.5698    468.0322     57.8968
           13          14      0.4000      0.0867    406.2109    468.3105     57.8683
           13          15      0.4000      0.0933    407.7061    468.9697     57.8018
           13          16      0.4000      0.1000    410.0697    470.0400     57.6964
           13          17      0.4000      0.1067    413.3221    471.5674     57.5510
           13          18      0.4000      0.1133    417.4901    473.6128     57.3640
           13          19      0.4000      0.1200    422.6077    476.2508     57.1334
           13          20      0.4000      0.1267    428.7162    479.5675     56.8569
           13          21      0.4000      0.1333    435.8652    483.6573     56.5316
           13          22      0.4000      0.1400    444.1136    488.6191     56.1543
           13          23      0.4000      0.1467    453.5299    494.5502     55.7213
           13          24      0.4000      0.1533    464.1943    501.5386     55.2286
           13          25      0.4000      0.1600    476.1990    509.6536     54.6716
           13          26      0.4000      0.1667    489.6503    518.9329     54.0456
           13          27      0.4000      0.1733    504.6694    529.3678     53.3458
           13          28      0.4000      0.1800    521.3937    540.8860     52.5671
           13          29      0.4000      0.1867    539.9774    553.3345     51.7053
           13          30      0.4000      0.1933    560.5904    566.4659     50.7569
           13          31      0.4000      0.2000    583.4159    579.9374     49.7203
           14           1      0.4333      0.0000    466.8449    503.3113     55.1058
           14           2      0.4333      0.0067    456.3218    496.3550     55.5925
           14           3      0.4333      0.0133    446.9122    490.3547     56.0258
           14           4      0.4333      0.0200    438.5653    485.2548     56.4083
           14           5      0.4333      0.0267    431.2354    480.9844     56.7424
           14           6      0.4333      0.0333    424.8819    477.4651     57.0306
           14           7      0.4333      0.0400    419.4693    474.6170     57.2750
           14           8      0.4333      0.0467    414.9679    472.3635     57.4773
           14           9      0.4333      0.0533    411.3533    470.6354     57.6391
           14          10      0.4333      0.0600    408.6064    469.3734     57.7617
           14          11      0.4333      0.0667    406.7138    468.5307     57.8459
           14          12      0.4333      0.0733    405.6670    468.0743     57.8925
           14          13      0.4333      0.0800    405.4635    467.9863     57.9015
           14          14      0.4333      0.0867    406.1058    468.2647     57.8730
           14          15      0.4333      0.0933    407.6023    468.9235     57.8064
           14          16      0.4333      0.1000    409.9674    469.9930     57.7010
           14          17      0.4333      0.1067    413.2213    471.5191     57.5555
           14          18      0.4333      0.1133    417.3910    473.5630     57.3685
           14          19      0.4333      0.1200    422.5103    476.1994     57.1378
           14          20      0.4333      0.1267    428.6207    479.5143     56.8612
           14          21      0.4333      0.1333    435.7716    483.6024     56.5359
           14          22      0.4333      0.1400    444.0218    488.5626     56.1585
           14          23      0.4333      0.1467    453.4400    494.4924     55.7255
           14          24      0.4333      0.1533    464.1062    501.4800     55.2326
           14          25      0.4333      0.1600    476.1127    509.5946     54.6756
           14          26      0.4333      0.1667    489.5657    518.8742     54.0496
           14          27      0.4333      0.1733    504.5863    529.3101     53.3496
           14          28      0.4333      0.1800    521.3119    540.8303     52.5709
           14          29      0.4333      0.1867    539.8966    553.2816     51.7090
           14          30      0.4333      0.1933    560.5104    566.4166     50.7605
           14          31      0.4333      0.2000    583.3364    579.8926     49.7239
           15           1      0.4667      0.0000    466.7881    503.2731     55.1084
           15           2      0.4667      0.0067    456.2653    496.3183     55.5951
           15           3      0.4667      0.0133    446.8560    490.3196     56.0284
           15           4      0.4667      0.0200    438.5094    485.2214     56.4109
           15           5      0.4667      0.0267    431.1797    480.9528     56.7450
           15           6      0.4667      0.0333    424.8263    477.4352     57.0331
           15           7      0.4667      0.0400    419.4140    474.5887     57.2774
           15           8      0.4667      0.0467    414.9129    472.3367     57.4797
           15           9      0.4667      0.0533    411.2986    470.6098     57.6415
           15          10      0.4667      0.0600    408.5521    469.3489     57.7641
           15          11      0.4667      0.0667    406.6599    468.5070     57.8483
           15          12      0.4667      0.0733    405.6137    468.0512     57.8949
           15          13      0.4667      0.0800    405.4106    467.9636     57.9039
           15          14      0.4667      0.0867    406.0535    468.2420     57.8753
           15          15      0.4667      0.0933    407.5508    468.9006     57.8087
           15          16      0.4667      0.1000    409.9166    469.9696     57.7032
           15          17      0.4667      0.1067    413.1713    471.4952     57.5578
           15          18      0.4667      0.1133    417.3418    473.5384     57.3707
           15          19      0.4667      0.1200    422.4620    476.1739     57.1400
           15          20      0.4667      0.1267    428.5733    479.4879     56.8634
           15          21      0.4667      0.1333    435.7251    483.5752     56.5380
           15          22      0.4667      0.1400    443.9763    488.5346     56.1606
           15          23      0.4667      0.1467    453.3955    494.4638     55.7275
           15          24      0.4667      0.1533    464.0626    501.4509     55.2347
           15          25      0.4667      0.1600    476.0700    509.5654     54.6776
           15          26      0.4667      0.1667    489.5238    518.8451     54.0515
           15          27      0.4667      0.1733    504.5451    529.2816     53.3516
           15          28      0.4667      0.1800    521.2714    540.8027     52.5728
           15          29      0.4667      0.1867    539.8567    553.2553     51.7109
           15          30      0.4667      0.1933    560.4708    566.3922     50.7623
           15          31      0.4667      0.2000    583.2970    579.8704     49.7256
           16           1      0.5000      0.0000    466.7709    503.2616     55.1092
           16           2      0.5000      0.0067    456.2482    496.3071     55.5959
           16           3      0.5000      0.0133    446.8389    490.3090     56.0292
           16           4      0.5000      0.0200    438.4924    485.2113     56.4116
           16           5      0.5000      0.0267    431.1628    480.9432     56.7458
           16           6      0.5000      0.0333    424.8095    477.4261     57.0339
           16           7      0.5000      0.0400    419.3973    474.5801     57.2782
           16           8      0.5000      0.0467    414.8963    472.3285     57.4805
           16           9      0.5000      0.0533    411.2821    470.6021     57.6423
           16          10      0.5000      0.0600    408.5357    469.3415     57.7648
           16          11      0.5000      0.0667    406.6436    468.4999     57.8491
           16          12      0.5000      0.0733    405.5975    468.0442     57.8956
           16          13      0.5000      0.0800    405.3946    467.9567     57.9046
           16          14      0.5000      0.0867    406.0377    468.2351     57.8760
           16          15      0.5000      0.0933    407.5352    468.8937     57.8094
           16          16      0.5000      0.1000    409.9012    469.9626     57.7039
           16          17      0.5000      0.1067    413.1562    471.4880     57.5584
           16          18      0.5000      0.1133    417.3270    473.5309     57.3713
           16          19      0.5000      0.1200    422.4474    476.1662     57.1407
           16          20      0.5000      0.1267    428.5589    479.4799     56.8640
           16          21      0.5000      0.1333    435.7111    483.5669     56.5386
           16          22      0.5000      0.1400    443.9625    488.5262     56.1612
           16          23      0.5000      0.1467    453.3820    494.4551     55.7281
           16          24      0.5000      0.1533    464.0494    501.4421     55.2353
           16          25      0.5000      0.1600    476.0571    509.5565     54.6782
           16          26      0.5000      0.1667    489.5111    518.8363     54.0521
           16          27      0.5000      0.1733    504.5327    529.2730     53.3521
           16          28      0.5000      0.1800    521.2592    540.7943     52.5734
           16          29      0.5000      0.1867    539.8446    553.2474     51.7114
           16          30      0.5000      0.1933    560.4588    566.3848     50.7629
           16          31      0.5000      0.2000    583.2851    579.8637     49.7262
           17           1      0.5333      0.0000    466.7878    503.2730     55.1084
           17           2      0.5333      0.0067    456.2651    496.3181     55.5952
           17           3      0.5333      0.0133    446.8557    490.3195     56.0284
           17           4      0.5333      0.0200    438.5091    485.2213     56.4109
           17           5      0.5333      0.0267    431.1795    480.9526     56.7450
           17           6      0.5333      0.0333    424.8261    477.4351     57.0332
           17           7      0.5333      0.0400    419.4138    474.5886     57.2774
           17           8      0.5333      0.0467    414.9127    472.3366     57.4797
           17           9      0.5333      0.0533    411.2984    470.6097     57.6415
           17          10      0.5333      0.0600    408.5519    469.3488     57.7641
           17          11      0.5333      0.0667    406.6597    468.5069     57.8484
           17          12      0.5333      0.0733    405.6135    468.0511     57.8949
           17          13      0.5333      0.0800    405.4104    467.9635     57.9039
           17          14      0.5333      0.0867    406.0533    468.2419     57.8753
           17          15      0.5333      0.0933    407.5506    468.9005     57.8087
           17          16      0.5333      0.1000    409.9164    469.9696     57.7033
           17          17      0.5333      0.1067    413.1711    471.4951     57.5578
           17          18      0.5333      0.1133    417.3417    473.5383     57.3707
           17          19      0.5333      0.1200    422.4619    476.1738     57.1400
           17          20      0.5333      0.1267    428.5731    479.4878     56.8634
           17          21      0.5333      0.1333    435.7250    483.5751     56.5380
           17          22      0.5333      0.1400    443.9761    488.5345     56.1606
           17          23      0.5333      0.1467    453.3953    494.4637     55.7275
           17          24      0.5333      0.1533    464.0624    501.4508     55.2347
           17          25      0.5333      0.1600    476.0698    509.5652     54.6776
           17          26      0.5333      0.1667    489.5236    518.8450     54.0515
           17          27      0.5333      0.1733    504.5450    529.2815     53.3516
           17          28      0.5333      0.1800    521.2713    540.8026     52.5728
           17          29      0.5333      0.1867    539.8565    553.2552     51.7109
           17          30      0.5333      0.1933    560.4706    566.3921     50.7623
           17          31      0.5333      0.2000    583.2968    579.8704     49.7256
           18           1      0.5667      0.0000    466.8444    503.3110     55.1058
           18           2      0.5667      0.0067    456.3214    496.3547     55.5926
           18           3      0.5667      0.0133    446.9117    490.3544     56.0259
           18           4      0.5667      0.0200    438.5649    485.2545     56.4083
           18           5      0.5667      0.0267    431.2350    480.9842     56.7425
           18           6      0.5667      0.0333    424.8814    477.4649     57.0307
           18           7      0.5667      0.0400    419.4688    474.6168     57.2750
           18           8      0.5667      0.0467    414.9674    472.3633     57.4773
           18           9      0.5667      0.0533    411.3528    470.6352     57.6391
           18          10      0.5667      0.0600    408.6060    469.3732     57.7617
           18          11      0.5667      0.0667    406.7133    468.5305     57.8460
           18          12      0.5667      0.0733    405.6666    468.0741     57.8925
           18          13      0.5667      0.0800    405.4630    467.9862     57.9015
           18          14      0.5667      0.0867    406.1053    468.2646     57.8730
           18          15      0.5667      0.0933    407.6019    468.9233     57.8064
           18          16      0.5667      0.1000    409.9670    469.9928     57.7010
           18          17      0.5667      0.1067    413.2209    471.5189     57.5555
           18          18      0.5667      0.1133    417.3906    473.5628     57.3685
           18          19      0.5667      0.1200    422.5100    476.1992     57.1378
           18          20      0.5667      0.1267    428.6203    479.5141     56.8612
           18          21      0.5667      0.1333    435.7712    483.6022     56.5359
           18          22      0.5667      0.1400    444.0214    488.5624     56.1585
           18          23      0.5667      0.1467    453.4397    494.4922     55.7255
           18          24      0.5667      0.1533    464.1059    501.4797     55.2327
           18          25      0.5667      0.1600    476.1124    509.5944     54.6756
           18          26      0.5667      0.1667    489.5653    518.8740     54.0496
           18          27      0.5667      0.1733    504.5860    529.3099     53.3497
           18          28      0.5667      0.1800    521.3116    540.8301     52.5709
           18          29      0.5667      0.1867    539.8963    553.2814     51.7090
           18          30      0.5667      0.1933    560.5101    566.4164     50.7605
           18          31      0.5667      0.2000    583.3360    579.8924     49.7239
           19           1      0.6000      0.0000    466.9583    503.3874     55.1005
           19           2      0.6000      0.0067    456.4346    496.4283     55.5873
           19           3      0.6000      0.0133    447.0244    490.4248     56.0207
           19           4      0.6000      0.0200    438.6771    485.3215     56.4032
           19           5      0.6000      0.0267    431.3467    481.0476     56.7374
           19           6      0.6000      0.0333    424.9927    477.5249     57.0256
           19           7      0.6000      0.0400    419.5796    474.6736     57.2700
           19           8      0.6000      0.0467    415.0777    472.4172     57.4723
           19           9      0.6000      0.0533    411.4625    470.6865     57.6342
           19          10      0.6000      0.0600    408.7149    469.4224     57.7568
           19          11      0.6000      0.0667    406.8214    468.5780     57.8412
           19          12      0.6000      0.0733    405.7737    468.1205     57.8877
           19          13      0.6000      0.0800    405.5691    468.0319     57.8968
           19          14      0.6000      0.0867    406.2102    468.3102     57.8683
           19          15      0.6000      0.0933    407.7054    468.9694     57.8018
           19          16      0.6000      0.1000    410.0690    470.0397     57.6964
           19          17      0.6000      0.1067    413.3214    471.5671     57.5510
           19          18      0.6000      0.1133    417.4895    473.6124     57.3640
           19          19      0.6000      0.1200    422.6071    476.2504     57.1335
           19          20      0.6000      0.1267    428.7156    479.5671     56.8569
           19          21      0.6000      0.1333    435.8646    483.6570     56.5316
           19          22      0.6000      0.1400    444.1130    488.6188     56.1543
           19          23      0.6000      0.1467    453.5293    494.5498     55.7213
           19          24      0.6000      0.1533    464.1937    501.5382     55.2286
           19          25      0.6000      0.1600    476.1984    509.6532     54.6716
           19          26      0.6000      0.1667    489.6497    518.9325     54.0457
           19          27      0.6000      0.1733    504.6688    529.3674     53.3458
           19          28      0.6000      0.1800    521.3932    540.8857     52.5671
           19          29      0.6000      0.1867    539.9768    553.3342     51.7053
           19          30      0.6000      0.1933    560.5898    566.4656     50.7569
           19          31      0.6000      0.2000    583.4154    579.9371     49.7203
           20           1      0.6333      0.0000    467.1648    503.5261     55.0909
           20           2      0.6333      0.0067    456.6399    496.5618     55.5778
           20           3      0.6333      0.0133    447.2288    490.5525     56.0113
           20           4      0.6333      0.0200    438.8806    485.4431     56.3939
           20           5      0.6333      0.0267    431.5494    481.1629     56.7282
           20           6      0.6333      0.0333    425.1946    477.6340     57.0165
           20           7      0.6333      0.0400    419.7806    474.7768     57.2609
           20           8      0.6333      0.0467    415.2777    472.5151     57.4634
           20           9      0.6333      0.0533    411.6614    470.7797     57.6253
           20          10      0.6333      0.0600    408.9125    469.5118     57.7480
           20          11      0.6333      0.0667    407.0176    468.6644     57.8324
           20          12      0.6333      0.0733    405.9682    468.2049     57.8791
           20          13      0.6333      0.0800    405.7617    468.1153     57.8883
           20          14      0.6333      0.0867    406.4006    468.3934     57.8599
           20          15      0.6333      0.0933    407.8935    469.0534     57.7934
           20          16      0.6333      0.1000    410.2546    470.1252     57.6882
           20          17      0.6333      0.1067    413.5042    471.6547     57.5429
           20          18      0.6333      0.1133    417.6693    473.7028     57.3559
           20          19      0.6333      0.1200    422.7838    476.3439     57.1255
           20          20      0.6333      0.1267    428.8890    479.6638     56.8490
           20          21      0.6333      0.1333    436.0348    483.7568     56.5239
           20          22      0.6333      0.1400    444.2798    488.7215     56.1467
           20          23      0.6333      0.1467    453.6928    494.6549     55.7138
           20          24      0.6333      0.1533    464.3538    501.6450     55.2212
           20          25      0.6333      0.1600    476.3554    509.7606     54.6643
           20          26      0.6333      0.1667    489.8037    519.0394     54.0385
           20          27      0.6333      0.1733    504.8201    529.4724     53.3387
           20          28      0.6333      0.1800    521.5421    540.9872     52.5602
           20          29      0.6333      0.1867    540.1239    553.4307     51.6985
           20          30      0.6333      0.1933    560.7355    566.5554     50.7502
           20          31      0.6333      0.2000    583.5604    580.0187     49.7138
           21           1      0.6667      0.0000    467.5269    503.7693     55.0742
           21           2      0.6667      0.0067    456.9999    496.7962     55.5612
           21           3      0.6667      0.0133    447.5870    490.7768     55.9948
           21           4      0.6667      0.0200    439.2374    485.6566     56.3776
           21           5      0.6667      0.0267    431.9048    481.3655     56.7120
           21           6      0.6667      0.0333    425.5486    477.8258     57.0005
           21           7      0.6667      0.0400    420.1332    474.9584     57.2450
           21           8      0.6667      0.0467    415.6287    472.6874     57.4476
           21           9      0.6667      0.0533    412.0105    470.9440     57.6097
           21          10      0.6667      0.0600    409.2595    469.6693     57.7326
           21          11      0.6667      0.0667    407.3620    468.8168     57.8171
           21          12      0.6667      0.0733    406.3098    468.3537     57.8639
           21          13      0.6667      0.0800    406.1001    468.2623     57.8732
           21          14      0.6667      0.0867    406.7354    468.5402     57.8450
           21          15      0.6667      0.0933    408.2243    469.2015     57.7787
           21          16      0.6667      0.1000    410.5810    470.2760     57.6736
           21          17      0.6667      0.1067    413.8259    471.8095     57.5284
           21          18      0.6667      0.1133    417.9860    473.8624     57.3417
           21          19      0.6667      0.1200    423.0951    476.5090     57.1114
           21          20      0.6667      0.1267    429.1949    479.8346     56.8352
           21          21      0.6667      0.1333    436.3349    483.9332     56.5102
           21          22      0.6667      0.1400    444.5741    488.9030     56.1332
           21          23      0.6667      0.1467    453.9813    494.8407     55.7005
           21          24      0.6667      0.1533    464.6367    501.8336     55.2081
           21          25      0.6667      0.1600    476.6328    509.9505     54.6514
           21          26      0.6667      0.1667    490.0760    519.2283     54.0258
           21          27      0.6667      0.1733    505.0877    529.6580     53.3263
           21          28      0.6667      0.1800    521.8057    541.1668     52.5480
           21          29      0.6667      0.1867    540.3841    553.6013     51.6865
           21          30      0.6667      0.1933    560.9934    566.7141     50.7384
           21          31      0.6667      0.2000    583.8170    580.1630     49.7022
           22           1      0.7000      0.0000    468.1526    504.1903     55.0452
           22           2      0.7000      0.0067    457.6221    497.2019     55.5325
           22           3      0.7000      0.0133    448.2062    491.1653     55.9664
           22           4      0.7000      0.0200    439.8540    486.0267     56.3494
           22           5      0.7000      0.0267    432.5192    481.7168     56.6841
           22           6      0.7000      0.0333    426.1607    478.1588     56.9727
           22           7      0.7000      0.0400    420.7429    475.2740     57.2176
           22           8      0.7000      0.0467    416.2357    472.9871     57.4204
           22           9      0.7000      0.0533    412.6145    471.2298     57.5827
           22          10      0.7000      0.0600    409.8600    469.9437     57.7058
           22          11      0.7000      0.0667    407.9585    469.0824     57.7905
           22          12      0.7000      0.0733    406.9016    468.6133     57.8376
           22          13      0.7000      0.0800    406.6865    468.5187     57.8472
           22          14      0.7000      0.0867    407.3160    468.7964     57.8192
           22          15      0.7000      0.0933    408.7982    469.4600     57.7531
           22          16      0.7000      0.1000    411.1477    470.5394     57.6483
           22          17      0.7000      0.1067    414.3847    472.0797     57.5034
           22          18      0.7000      0.1133    418.5363    474.1410     57.3169
           22          19      0.7000      0.1200    423.6366    476.7971     57.0869
           22          20      0.7000      0.1267    429.7270    480.1327     56.8110
           22          21      0.7000      0.1333    436.8574    484.2412     56.4863
           22          22      0.7000      0.1400    445.0869    489.2199     56.1096
           22          23      0.7000      0.1467    454.4843    495.1650     55.6773
           22          24      0.7000      0.1533    465.1301    502.1630     55.1852
           22          25      0.7000      0.1600    477.1169    510.2820     54.6289
           22          26      0.7000      0.1667    490.5514    519.5584     54.0037
           22          27      0.7000      0.1733    505.5552    529.9822     53.3045
           22          28      0.7000      0.1800    522.2663    541.4805     52.5266
           22          29      0.7000      0.1867    540.8392    553.8994     51.6654
           22          30      0.7000      0.1933    561.4444    566.9914     50.7178
           22          31      0.7000      0.2000    584.2658    580.4149     49.6820
           23           1      0.7333      0.0000    469.2243    504.9127     54.9954
           23           2      0.7333      0.0067    458.6877    497.8988     55.4833
           23           3      0.7333      0.0133    449.2669    491.8334     55.9176
           23           4      0.7333      0.0200    440.9105    486.6639     56.3010
           23           5      0.7333      0.0267    433.5719    482.3225     56.6361
           23           6      0.7333      0.0333    427.2097    478.7335     56.9252
           23           7      0.7333      0.0400    421.7881    475.8193     57.1704
           23           8      0.7333      0.0467    417.2767    473.5057     57.3736
           23           9      0.7333      0.0533    413.6506    471.7250     57.5363
           23          10      0.7333      0.0600    410.8905    470.4196     57.6598
           23          11      0.7333      0.0667    408.9825    469.5435     57.7449
           23          12      0.7333      0.0733    407.9181    469.0643     57.7923
           23          13      0.7333      0.0800    407.6945    468.9646     57.8023
           23          14      0.7333      0.0867    408.3143    469.2419     57.7747
           23          15      0.7333      0.0933    409.7858    469.9097     57.7091
           23          16      0.7333      0.1000    412.1234    470.9973     57.6047
           23          17      0.7333      0.1067    415.3476    472.5493     57.4602
           23          18      0.7333      0.1133    419.4854    474.6252     57.2742
           23          19      0.7333      0.1200    424.5710    477.2976     57.0447
           23          20      0.7333      0.1267    430.6460    480.6505     56.7692
           23          21      0.7333      0.1333    437.7606    484.7758     56.4451
           23          22      0.7333      0.1400    445.9739    489.7701     56.0689
           23          23      0.7333      0.1467    455.3551    495.7279     55.6371
           23          24      0.7333      0.1533    465.9849    502.7348     55.1456
           23          25      0.7333      0.1600    477.9563    510.8574     54.5899
           23          26      0.7333      0.1667    491.3763    520.1311     53.9652
           23          27      0.7333      0.1733    506.3668    530.5449     53.2667
           23          28      0.7333      0.1800    523.0663    542.0248     52.4894
           23          29      0.7333      0.1867    541.6298    554.4164     51.6289
           23          30      0.7333      0.1933    562.2282    567.4724     50.6819
           23          31      0.7333      0.2000    585.0458    580.8516     49.6469
           24           1      0.7667      0.0000    471.0459    506.1445     54.9109
           24           2      0.7667      0.0067    460.4989    499.0891     55.3996
           24           3      0.7667      0.0133    451.0697    492.9763     55.8346
           24           4      0.7667      0.0200    442.7065    487.7560     56.2188
           24           5      0.7667      0.0267    435.3618    483.3625     56.5545
           24           6      0.7667      0.0333    428.9938    479.7223     56.8443
           24           7      0.7667      0.0400    423.5663    476.7596     57.0901
           24           8      0.7667      0.0467    419.0483    474.4017     57.2939
           24           9      0.7667      0.0533    415.4148    472.5823     57.4572
           24          10      0.7667      0.0600    412.6460    471.2448     57.5813
           24          11      0.7667      0.0667    410.7279    470.3441     57.6670
           24          12      0.7667      0.0733    409.6519    469.8484     57.7151
           24          13      0.7667      0.0800    409.4149    469.7401     57.7256
           24          14      0.7667      0.0867    410.0194    470.0169     57.6987
           24          15      0.7667      0.0933    411.4739    470.6918     57.6337
           24          16      0.7667      0.1000    413.7926    471.7934     57.5299
           24          17      0.7667      0.1067    416.9961    473.3654     57.3862
           24          18      0.7667      0.1133    421.1117    475.4658     57.2009
           24          19      0.7667      0.1200    426.1736    478.1658     56.9722
           24          20      0.7667      0.1267    432.2238    481.5477     56.6975
           24          21      0.7667      0.1333    439.3127    485.7017     56.3741
           24          22      0.7667      0.1400    447.4997    490.7221     55.9988
           24          23      0.7667      0.1467    456.8545    496.7014     55.5679
           24          24      0.7667      0.1533    467.4581    503.7231     55.0773
           24          25      0.7667      0.1600    479.4043    511.8517     54.5226
           24          26      0.7667      0.1667    492.8004    521.1204     53.8989
           24          27      0.7667      0.1733    507.7692    531.5164     53.2013
           24          28      0.7667      0.1800    524.4496    542.9642     52.4251
           24          29      0.7667      0.1867    542.9975    555.3084     51.5657
           24          30      0.7667      0.1933    563.5845    568.3014     50.6200
           24          31      0.7667      0.2000    586.3957    581.6038     49.5863
           25           1      0.8000      0.0000    474.1179    508.2325     54.7683
           25           2      0.8000      0.0067    463.5535    501.1120     55.2582
           25           3      0.8000      0.0133    454.1106    494.9240     55.6945
           25           4      0.8000      0.0200    445.7362    489.6224     56.0798
           25           5      0.8000      0.0267    438.3819    485.1454     56.4167
           25           6      0.8000      0.0333    432.0051    481.4227     56.7074
           25           7      0.8000      0.0400    426.5686    478.3817     56.9543
           25           8      0.8000      0.0467    422.0410    475.9521     57.1590
           25           9      0.8000      0.0533    418.3964    474.0701     57.3232
           25          10      0.8000      0.0600    415.6148    472.6806     57.4482
           25          11      0.8000      0.0667    413.6816    471.7400     57.5349
           25          12      0.8000      0.0733    412.5879    471.2172     57.5839
           25          13      0.8000      0.0800    412.3304    471.0951     57.5954
           25          14      0.8000      0.0867    412.9116    471.3712     57.5694
           25          15      0.8000      0.0933    414.3397    472.0578     57.5054
           25          16      0.8000      0.1000    416.6291    473.1824     57.4027
           25          17      0.8000      0.1067    419.8004    474.7870     57.2600
           25          18      0.8000      0.1133    423.8812    476.9277     57.0759
           25          19      0.8000      0.1200    428.9059    479.6732     56.8483
           25          20      0.8000      0.1267    434.9168    483.1028     56.5748
           25          21      0.8000      0.1333    441.9649    487.3037     56.2528
           25          22      0.8000      0.1400    450.1100    492.3668     55.8788
           25          23      0.8000      0.1467    459.4227    498.3811     55.4493
           25          24      0.8000      0.1533    469.9848    505.4263     54.9602
           25          25      0.8000      0.1600    481.8905    513.5633     54.4069
           25          26      0.8000      0.1667    495.2485    522.8219     53.7848
           25          27      0.8000      0.1733    510.1824    533.1859     53.0889
           25          28      0.8000      0.1800    526.8324    544.5770     52.3144
           25          29      0.8000      0.1867    545.3553    556.8382     51.4569
           25          30      0.8000      0.1933    565.9240    569.7217     50.5132
           25          31      0.8000      0.2000    588.7245    582.8907     49.4818
           26           1      0.8333      0.0000    479.2569    511.7504     54.5294
           26           2      0.8333      0.0067    468.6634    504.5343     55.0215
           26           3      0.8333      0.0133    459.1980    498.2335     55.4597
           26           4      0.8333      0.0200    450.8058    492.8084     55.8468
           26           5      0.8333      0.0267    443.4369    488.2032     56.1853
           26           6      0.8333      0.0333    437.0469    484.3531     56.4777
           26           7      0.8333      0.0400    431.5976    481.1903     56.7260
           26           8      0.8333      0.0467    427.0563    478.6491     56.9322
           26           9      0.8333      0.0533    423.3962    476.6690     57.0978
           26          10      0.8333      0.0600    420.5963    475.1980     57.2242
           26          11      0.8333      0.0667    418.6415    474.1945     57.3122
           26          12      0.8333      0.0733    417.5223    473.6289     57.3626
           26          13      0.8333      0.0800    417.2350    473.4848     57.3755
           26          14      0.8333      0.0867    417.7817    473.7594     57.3509
           26          15      0.8333      0.0933    419.1705    474.4641     57.2884
           26          16      0.8333      0.1000    421.4159    475.6245     57.1872
           26          17      0.8333      0.1067    424.5387    477.2803     57.0462
           26          18      0.8333      0.1133    428.5664    479.4841     56.8637
           26          19      0.8333      0.1200    433.5342    482.3007     56.6378
           26          20      0.8333      0.1267    439.4849    485.8050     56.3663
           26          21      0.8333      0.1333    446.4702    490.0790     56.0461
           26          22      0.8333      0.1400    454.5508    495.2079     55.6742
           26          23      0.8333      0.1467    463.7984    501.2750     55.2469
           26          24      0.8333      0.1533    474.2960    508.3538     54.7600
           26          25      0.8333      0.1600    486.1394    516.4992     54.2092
           26          26      0.8333      0.1667    499.4387    525.7348     53.5895
           26          27      0.8333      0.1733    514.3194    536.0392     52.8963
           26          28      0.8333      0.1800    530.9235    547.3294     52.1245
           26          29      0.8333      0.1867    549.4100    559.4453     51.2701
           26          30      0.8333      0.1933    569.9538    572.1392     50.3296
           26          31      0.8333      0.2000    592.7432    585.0794     49.3019
           27           1      0.8667      0.0000    487.7822    517.6373     54.1327
           27           2      0.8667      0.0067    477.1408    510.2984     54.6278
           27           3      0.8667      0.0133    467.6390    503.8447     55.0690
           27           4      0.8667      0.0200    459.2188    498.2472     55.4587
           27           5      0.8667      0.0267    451.8277    493.4595     55.7997
           27           6      0.8667      0.0333    445.4190    489.4256     56.0944
           27           7      0.8667      0.0400    439.9521    486.0857     56.3449
           27           8      0.8667      0.0467    435.3925    483.3805     56.5531
           27           9      0.8667      0.0533    431.7120    481.2555     56.7208
           27          10      0.8667      0.0600    428.8880    479.6632     56.8491
           27          11      0.8667      0.0667    426.9042    478.5656     56.9391
           27          12      0.8667      0.0733    425.7502    477.9353     56.9913
           27          13      0.8667      0.0800    425.4216    477.7570     57.0062
           27          14      0.8667      0.0867    425.9200    478.0276     56.9836
           27          15      0.8667      0.0933    427.2532    478.7574     56.9232
           27          16      0.8667      0.1000    429.4356    479.9693     56.8242
           27          17      0.8667      0.1067    432.4880    481.6990     56.6855
           27          18      0.8667      0.1133    436.4386    483.9942     56.5054
           27          19      0.8667      0.1200    441.3229    486.9137     56.2822
           27          20      0.8667      0.1267    447.1847    490.5250     56.0133
           27          21      0.8667      0.1333    454.0766    494.9020     55.6961
           27          22      0.8667      0.1400    462.0610    500.1213     55.3273
           27          23      0.8667      0.1467    471.2111    506.2565     54.9033
           27          24      0.8667      0.1533    481.6118    513.3712     54.4199
           27          25      0.8667      0.1600    493.3613    521.5101     53.8728
           27          26      0.8667      0.1667    506.5721    530.6872     53.2571
           27          27      0.8667      0.1733    521.3728    540.8718     52.5681
           27          28      0.8667      0.1800    537.9083    551.9735     51.8010
           27          29      0.8667      0.1867    556.3410    563.8278     50.9515
           27          30      0.8667      0.1933    576.8493    576.1880     50.0167
           27          31      0.8667      0.2000    599.6249    588.7324     48.9955
           28           1      0.9000      0.0000    501.8149    527.3861     53.4788
           28           2      0.9000      0.0067    491.0954    519.9360     53.9783
           28           3      0.9000      0.0133    481.5348    513.3181     54.4235
           28           4      0.9000      0.0200    473.0707    507.5193     54.8169
           28           5      0.9000      0.0267    465.6463    502.5082     55.1613
           28           6      0.9000      0.0333    459.2112    498.2422     55.4591
           28           7      0.9000      0.0400    453.7213    494.6733     55.7125
           28           8      0.9000      0.0467    449.1392    491.7528     55.9235
           28           9      0.9000      0.0533    445.4339    489.4349     56.0937
           28          10      0.9000      0.0600    442.5806    487.6791     56.2246
           28          11      0.9000      0.0667    440.5612    486.4528     56.3170
           28          12      0.9000      0.0733    439.3636    485.7322     56.3718
           28          13      0.9000      0.0800    438.9822    485.5039     56.3892
           28          14      0.9000      0.0867    439.4179    485.7648     56.3693
           28          15      0.9000      0.0933    440.6777    486.5232     56.3117
           28          16      0.9000      0.1000    442.7758    487.7984     56.2156
           28          17      0.9000      0.1067    445.7332    489.6206     56.0800
           28          18      0.9000      0.1133    449.5783    492.0302     55.9033
           28          19      0.9000      0.1200    454.3475    495.0767     55.6836
           28          20      0.9000      0.1267    460.0857    498.8170     55.4187
           28          21      0.9000      0.1333    466.8471    503.3127     55.1057
           28          22      0.9000      0.1400    474.6958    508.6266     54.7415
           28          23      0.9000      0.1467    483.7074    514.8173     54.3224
           28          24      0.9000      0.1533    493.9696    521.9329     53.8444
           28          25      0.9000      0.1600    505.5838    530.0021     53.3032
           28          26      0.9000      0.1667    518.6664    539.0230     52.6940
           28          27      0.9000      0.1733    533.3499    548.9509     52.0121
           28          28      0.9000      0.1800    549.7840    559.6842     51.2529
           28          29      0.9000      0.1867    568.1358    571.0532     50.4124
           28          30      0.9000      0.1933    588.5889    582.8161     49.4878
           28          31      0.9000      0.2000    611.3397    594.6738     48.4787
           29           1      0.9333      0.0000    524.7679    543.1800     52.4103
           29           2      0.9333      0.0067    513.9219    535.7656     52.9148
           29           3      0.9333      0.0133    504.2667    529.0884     53.3645
           29           4      0.9333      0.0200    495.7328    523.1586     53.7622
           29           5      0.9333      0.0267    488.2574    517.9667     54.1105
           29           6      0.9333      0.0333    481.7842    513.4900     54.4119
           29           7      0.9333      0.0400    476.2640    509.6981     54.6686
           29           8      0.9333      0.0467    471.6548    506.5574     54.8827
           29           9      0.9333      0.0533    467.9216    504.0348     55.0559
           29          10      0.9333      0.0600    465.0364    502.1004     55.1896
           29          11      0.9333      0.0667    462.9780    500.7295     55.2849
           29          12      0.9333      0.0733    461.7321    499.9036     55.3425
           29          13      0.9333      0.0800    461.2911    499.6120     55.3629
           29          14      0.9333      0.0867    461.6545    499.8522     55.3461
           29          15      0.9333      0.0933    462.8284    500.6302     55.2918
           29          16      0.9333      0.1000    464.8264    501.9603     55.1993
           29          17      0.9333      0.1067    467.6695    503.8652     55.0676
           29          18      0.9333      0.1133    471.3863    506.3752     54.8951
           29          19      0.9333      0.1200    476.0140    509.5270     54.6802
           29          20      0.9333      0.1267    481.5987    513.3622     54.4205
           29          21      0.9333      0.1333    488.1964    517.9244     54.1134
           29          22      0.9333      0.1400    495.8735    523.2564     53.7557
           29          23      0.9333      0.1467    504.7084    529.3948     53.3440
           29          24      0.9333      0.1533    514.7921    536.3644     52.8743
           29          25      0.9333      0.1600    526.2300    544.1699     52.3424
           29          26      0.9333      0.1667    539.1430    552.7865     51.7439
           29          27      0.9333      0.1733    553.6688    562.1496     51.0742
           29          28      0.9333      0.1800    569.9629    572.1447     50.3292
           29          29      0.9333      0.1867    588.1985    582.6012     49.5053
           29          30      0.9333      0.1933    608.5653    593.2982     48.6005
           29          31      0.9333      0.2000    631.2660    603.9927     47.6150
           30           1      0.9667      0.0000    562.1862    567.4466     50.6839
           30           2      0.9667      0.0067    551.1392    560.5476     51.1905
           30           3      0.9667      0.0133    541.3296    554.2203     51.6428
           30           4      0.9667      0.0200    532.6802    548.5042     52.0431
           30           5      0.9667      0.0267    525.1199    543.4186     52.3939
           30           6      0.9667      0.0333    518.5848    538.9671     52.6978
           30           7      0.9667      0.0400    513.0185    535.1433     52.9568
           30           8      0.9667      0.0467    508.3729    531.9343     53.1732
           30           9      0.9667      0.0533    504.6073    529.3247     53.3487
           30          10      0.9667      0.0600    501.6893    527.2988     53.4846
           30          11      0.9667      0.0667    499.5937    525.8426     53.5823
           30          12      0.9667      0.0733    498.3032    524.9456     53.6425
           30          13      0.9667      0.0800    497.8078    524.6012     53.6655
           30          14      0.9667      0.0867    498.1049    524.8077     53.6517
           30          15      0.9667      0.0933    499.1995    525.5686     53.6007
           30          16      0.9667      0.1000    501.1043    526.8924     53.5119
           30          17      0.9667      0.1067    503.8398    528.7921     53.3844
           30          18      0.9667      0.1133    507.4352    531.2851     53.2169
           30          19      0.9667      0.1200    511.9280    534.3913     53.0076
           30          20      0.9667      0.1267    517.3656    538.1319     52.7545
           30          21      0.9667      0.1333    523.8054    542.5269     52.4550
           30          22      0.9667      0.1400    531.3159    547.5922     52.1064
           30          23      0.9667      0.1467    539.9777    553.3347     51.7053
           30          24      0.9667      0.1533    549.8843    559.7482     51.2482
           30          25      0.9667      0.1600    561.1439    566.8067     50.7315
           30          26      0.9667      0.1667    573.8804    574.4586     50.1513
           30          27      0.9667      0.1733    588.2347    582.6212     49.5037
           30          28      0.9667      0.1800    604.3655    591.1787     48.7856
           30          29      0.9667      0.1867    622.4493    599.9891     47.9946
           30          30      0.9667      0.1933    642.6792    608.9078     47.1300
           30          31      0.9667      0.2000    665.2605    617.8439     46.1939
           31           1      1.0000      0.0000    623.2447    600.3579     47.9602
           31           2      1.0000      0.0067    611.8327    594.9162     48.4571
           31           3      1.0000      0.0133    601.7429    589.8324     48.9016
           31           4      1.0000      0.0200    592.8807    585.1535     49.2958
           31           5      1.0000      0.0267    585.1632    580.9172     49.6417
           31           6      1.0000      0.0333    578.5132    577.1480     49.9415
           31           7      1.0000      0.0400    572.8622    573.8606     50.1975
           31           8      1.0000      0.0467    568.1529    571.0634     50.4116
           31           9      1.0000      0.0533    564.3381    568.7602     50.5855
           31          10      1.0000      0.0600    561.3803    566.9521     50.7207
           31          11      1.0000      0.0667    559.2508    565.6384     50.8182
           31          12      1.0000      0.0733    557.9293    564.8184     50.8787
           31          13      1.0000      0.0800    557.4038    564.4913     50.9028
           31          14      1.0000      0.0867    557.6704    564.6573     50.8906
           31          15      1.0000      0.0933    558.7331    565.3176     50.8419
           31          16      1.0000      0.1000    560.6040    566.4743     50.7562
           31          17      1.0000      0.1067    563.3037    568.1301     50.6328
           31          18      1.0000      0.1133    566.8614    570.2874     50.4704
           31          19      1.0000      0.1200    571.3157    572.9478     50.2677
           31          20      1.0000      0.1267    576.7151    576.1103     50.0228
           31          21      1.0000      0.1333    583.1189    579.7701     49.7336
           31          22      1.0000      0.1400    590.5987    583.9165     49.3978
           31          23      1.0000      0.1467    599.2385    588.5304     49.0127
           31          24      1.0000      0.1533    609.1274    593.5785     48.5758
           31          25      1.0000      0.1600    620.3685    599.0168     48.0848
           31          26      1.0000      0.1667    633.0789    604.7931     47.5375
           31          27      1.0000      0.1733    647.3902    610.8537     46.9321
           31          28      1.0000      0.1800    663.4471    617.1602     46.2679
           31          29      1.0000      0.1867    681.4063    623.7232     45.5455
           31          30      1.0000      0.1933    701.4324    630.6626     44.7680
           31          31      1.0000      0.2000    723.6913    638.3116     43.9414
