 ====================================================================================
               Transient state solution for a 2D rectangular plate
                    for applications in steel reheating
                 e.g. Reheating furnaces for rolling processing
 ====================================================================================
 Author: Dickson Alves de Souza

 Based on lectures by professor Roberto Parreiras Tavares

 and book Numerical Heat Transfer and Fluid Flow
 by Suhas V. Patankar (1980)

 Federal University of Minas Gerais (UFMG)
 October 26th, 2017
 ====================================================================================
                              Input parameters:

 Lenght in X direction (meters):           1.0000
 Lenght in Y direction (meters):           0.2000
 Nodes in X direction:                         31
 Nodes in Y direction:                         31
 ====================================================================================

                       STAGE                1/  5
                       START Time:         0.0000
                       END Time:        1140.0000
                       Iterations:             1968

 ====================================================================================
 Temperature of fluid at left face (T left):             1223.1500
 Temperature of fluid at right face (T right):           1223.1500
 Temperature of fluid at bottom face (T bottom):         1223.1500
 Temperature of fluid at top face (T top):               1223.1500
 ------------------------------------------------------------------------------------
 Heat transfer coefficient at left face (H left):          50.0000
 Heat transfer coefficient at right face (H right):        50.0000
 Heat transfer coefficient at bottom face (H bottom):       8.0000
 Heat transfer coefficient at top face (H top):           150.0000
 ====================================================================================


 ====================================================================================

                       STAGE                2/  5
                       START Time:      1140.0000
                       END Time:        3060.0000
                       Iterations:             1968

 ====================================================================================
 Temperature of fluid at left face (T left):             1423.1500
 Temperature of fluid at right face (T right):           1423.1500
 Temperature of fluid at bottom face (T bottom):         1423.1500
 Temperature of fluid at top face (T top):               1423.1500
 ------------------------------------------------------------------------------------
 Heat transfer coefficient at left face (H left):          50.0000
 Heat transfer coefficient at right face (H right):        50.0000
 Heat transfer coefficient at bottom face (H bottom):       8.0000
 Heat transfer coefficient at top face (H top):           150.0000
 ====================================================================================


 ====================================================================================

                       STAGE                3/  5
                       START Time:      3060.0000
                       END Time:        4980.0000
                       Iterations:             1968

 ====================================================================================
 Temperature of fluid at left face (T left):             1513.1500
 Temperature of fluid at right face (T right):           1513.1500
 Temperature of fluid at bottom face (T bottom):         1513.1500
 Temperature of fluid at top face (T top):               1513.1500
 ------------------------------------------------------------------------------------
 Heat transfer coefficient at left face (H left):          50.0000
 Heat transfer coefficient at right face (H right):        50.0000
 Heat transfer coefficient at bottom face (H bottom):       8.0000
 Heat transfer coefficient at top face (H top):           150.0000
 ====================================================================================


 ====================================================================================

                       STAGE                4/  5
                       START Time:      4980.0000
                       END Time:        8400.0000
                       Iterations:             1968

 ====================================================================================
 Temperature of fluid at left face (T left):             1503.1500
 Temperature of fluid at right face (T right):           1503.1500
 Temperature of fluid at bottom face (T bottom):         1503.1500
 Temperature of fluid at top face (T top):               1523.1500
 ------------------------------------------------------------------------------------
 Heat transfer coefficient at left face (H left):          50.0000
 Heat transfer coefficient at right face (H right):        50.0000
 Heat transfer coefficient at bottom face (H bottom):       8.0000
 Heat transfer coefficient at top face (H top):           150.0000
 ====================================================================================


 ====================================================================================

                       STAGE                5/  5
                       START Time:      8400.0000
                       END Time:       18400.0000
                       Iterations:             1968

 ====================================================================================
 Temperature of fluid at left face (T left):             1393.1500
 Temperature of fluid at right face (T right):           1393.1500
 Temperature of fluid at bottom face (T bottom):         1393.1500
 Temperature of fluid at top face (T top):               1433.1500
 ------------------------------------------------------------------------------------
 Heat transfer coefficient at left face (H left):          50.0000
 Heat transfer coefficient at right face (H right):        50.0000
 Heat transfer coefficient at bottom face (H bottom):       8.0000
 Heat transfer coefficient at top face (H top):           150.0000
 ====================================================================================


 SOLUTION of LINEAR SYSTEM: TDMA (tri-diagonal matrix algorithm)
      ADI approach employed in solution.
 Tolerance:       0.0010

 ====================================================================================
                    Calculation Results
 Current time:    13000.000000000000       seconds
 Maximum Temperature :    1427.3009324550064
 Minimum Temperature :    1397.6091005710857
 Average(algebraic, non-weigthed) Temperature :    1414.1906656200074
 ====================================================================================
            I           J        X(m)        Y(m)        T(K)  Cp(J/kg.K) K(W/sq-m.K)
 ====================================================================================
            1           1      0.0000      0.0000   1397.6091    703.0000     48.5982
            1           2      0.0000      0.0067   1397.9247    703.0000     48.6154
            1           3      0.0000      0.0133   1398.2440    703.0000     48.6328
            1           4      0.0000      0.0200   1398.5671    703.0000     48.6505
            1           5      0.0000      0.0267   1398.8946    703.0000     48.6684
            1           6      0.0000      0.0333   1399.2267    703.0000     48.6866
            1           7      0.0000      0.0400   1399.5642    703.0000     48.7051
            1           8      0.0000      0.0467   1399.9075    703.0000     48.7239
            1           9      0.0000      0.0533   1400.2574    703.0000     48.7431
            1          10      0.0000      0.0600   1400.6147    703.0000     48.7627
            1          11      0.0000      0.0667   1400.9803    703.0000     48.7828
            1          12      0.0000      0.0733   1401.3553    703.0000     48.8034
            1          13      0.0000      0.0800   1401.7409    703.0000     48.8246
            1          14      0.0000      0.0867   1402.1384    703.0000     48.8465
            1          15      0.0000      0.0933   1402.5496    703.0000     48.8692
            1          16      0.0000      0.1000   1402.9762    703.0000     48.8928
            1          17      0.0000      0.1067   1403.4205    703.0000     48.9173
            1          18      0.0000      0.1133   1403.8850    703.0000     48.9430
            1          19      0.0000      0.1200   1404.3726    703.0000     48.9700
            1          20      0.0000      0.1267   1404.8869    703.0000     48.9985
            1          21      0.0000      0.1333   1405.4323    703.0000     49.0288
            1          22      0.0000      0.1400   1406.0137    703.0000     49.0611
            1          23      0.0000      0.1467   1406.6377    703.0000     49.0958
            1          24      0.0000      0.1533   1407.3120    703.0000     49.1334
            1          25      0.0000      0.1600   1408.0466    703.0000     49.1744
            1          26      0.0000      0.1667   1408.8540    703.0000     49.2195
            1          27      0.0000      0.1733   1409.7505    703.0000     49.2698
            1          28      0.0000      0.1800   1410.7573    703.0000     49.3263
            1          29      0.0000      0.1867   1411.9028    703.0000     49.3907
            1          30      0.0000      0.1933   1413.2246    703.0000     49.4653
            1          31      0.0000      0.2000   1414.7740    703.0000     49.5530
            2           1      0.0333      0.0000   1399.2249    703.0000     48.6865
            2           2      0.0333      0.0067   1399.6546    703.0000     48.7100
            2           3      0.0333      0.0133   1400.0886    703.0000     48.7338
            2           4      0.0333      0.0200   1400.5274    703.0000     48.7579
            2           5      0.0333      0.0267   1400.9715    703.0000     48.7823
            2           6      0.0333      0.0333   1401.4212    703.0000     48.8070
            2           7      0.0333      0.0400   1401.8773    703.0000     48.8321
            2           8      0.0333      0.0467   1402.3406    703.0000     48.8577
            2           9      0.0333      0.0533   1402.8118    703.0000     48.8837
            2          10      0.0333      0.0600   1403.2918    703.0000     48.9102
            2          11      0.0333      0.0667   1403.7818    703.0000     48.9373
            2          12      0.0333      0.0733   1404.2829    703.0000     48.9650
            2          13      0.0333      0.0800   1404.7965    703.0000     48.9935
            2          14      0.0333      0.0867   1405.3242    703.0000     49.0228
            2          15      0.0333      0.0933   1405.8676    703.0000     49.0530
            2          16      0.0333      0.1000   1406.4287    703.0000     49.0842
            2          17      0.0333      0.1067   1407.0097    703.0000     49.1165
            2          18      0.0333      0.1133   1407.6130    703.0000     49.1502
            2          19      0.0333      0.1200   1408.2413    703.0000     49.1853
            2          20      0.0333      0.1267   1408.8977    703.0000     49.2220
            2          21      0.0333      0.1333   1409.5856    703.0000     49.2605
            2          22      0.0333      0.1400   1410.3087    703.0000     49.3011
            2          23      0.0333      0.1467   1411.0713    703.0000     49.3439
            2          24      0.0333      0.1533   1411.8780    703.0000     49.3893
            2          25      0.0333      0.1600   1412.7336    703.0000     49.4376
            2          26      0.0333      0.1667   1413.6436    703.0000     49.4890
            2          27      0.0333      0.1733   1414.6134    703.0000     49.5439
            2          28      0.0333      0.1800   1415.6484    703.0000     49.6027
            2          29      0.0333      0.1867   1416.7533    703.0000     49.6655
            2          30      0.0333      0.1933   1417.9318    703.0000     49.7327
            2          31      0.0333      0.2000   1419.1850    703.0000     49.8043
            3           1      0.0667      0.0000   1400.6293    703.0000     48.7635
            3           2      0.0667      0.0067   1401.1576    703.0000     48.7925
            3           3      0.0667      0.0133   1401.6897    703.0000     48.8218
            3           4      0.0667      0.0200   1402.2259    703.0000     48.8513
            3           5      0.0667      0.0267   1402.7667    703.0000     48.8812
            3           6      0.0667      0.0333   1403.3125    703.0000     48.9113
            3           7      0.0667      0.0400   1403.8639    703.0000     48.9418
            3           8      0.0667      0.0467   1404.4216    703.0000     48.9727
            3           9      0.0667      0.0533   1404.9861    703.0000     49.0040
            3          10      0.0667      0.0600   1405.5584    703.0000     49.0358
            3          11      0.0667      0.0667   1406.1393    703.0000     49.0681
            3          12      0.0667      0.0733   1406.7298    703.0000     49.1009
            3          13      0.0667      0.0800   1407.3309    703.0000     49.1344
            3          14      0.0667      0.0867   1407.9438    703.0000     49.1686
            3          15      0.0667      0.0933   1408.5698    703.0000     49.2036
            3          16      0.0667      0.1000   1409.2102    703.0000     49.2395
            3          17      0.0667      0.1067   1409.8667    703.0000     49.2763
            3          18      0.0667      0.1133   1410.5406    703.0000     49.3141
            3          19      0.0667      0.1200   1411.2338    703.0000     49.3531
            3          20      0.0667      0.1267   1411.9479    703.0000     49.3933
            3          21      0.0667      0.1333   1412.6849    703.0000     49.4348
            3          22      0.0667      0.1400   1413.4465    703.0000     49.4779
            3          23      0.0667      0.1467   1414.2347    703.0000     49.5225
            3          24      0.0667      0.1533   1415.0513    703.0000     49.5688
            3          25      0.0667      0.1600   1415.8980    703.0000     49.6168
            3          26      0.0667      0.1667   1416.7762    703.0000     49.6668
            3          27      0.0667      0.1733   1417.6874    703.0000     49.7187
            3          28      0.0667      0.1800   1418.6322    703.0000     49.7727
            3          29      0.0667      0.1867   1419.6109    703.0000     49.8287
            3          30      0.0667      0.1933   1420.6230    703.0000     49.8868
            3          31      0.0667      0.2000   1421.6671    703.0000     49.9468
            4           1      0.1000      0.0000   1401.8082    703.0000     48.8283
            4           2      0.1000      0.0067   1402.4187    703.0000     48.8620
            4           3      0.1000      0.0133   1403.0315    703.0000     48.8958
            4           4      0.1000      0.0200   1403.6468    703.0000     48.9298
            4           5      0.1000      0.0267   1404.2650    703.0000     48.9640
            4           6      0.1000      0.0333   1404.8862    703.0000     48.9985
            4           7      0.1000      0.0400   1405.5110    703.0000     49.0331
            4           8      0.1000      0.0467   1406.1398    703.0000     49.0681
            4           9      0.1000      0.0533   1406.7730    703.0000     49.1033
            4          10      0.1000      0.0600   1407.4112    703.0000     49.1389
            4          11      0.1000      0.0667   1408.0550    703.0000     49.1749
            4          12      0.1000      0.0733   1408.7051    703.0000     49.2112
            4          13      0.1000      0.0800   1409.3620    703.0000     49.2480
            4          14      0.1000      0.0867   1410.0267    703.0000     49.2852
            4          15      0.1000      0.0933   1410.6999    703.0000     49.3230
            4          16      0.1000      0.1000   1411.3824    703.0000     49.3614
            4          17      0.1000      0.1067   1412.0751    703.0000     49.4004
            4          18      0.1000      0.1133   1412.7788    703.0000     49.4401
            4          19      0.1000      0.1200   1413.4945    703.0000     49.4806
            4          20      0.1000      0.1267   1414.2231    703.0000     49.5218
            4          21      0.1000      0.1333   1414.9654    703.0000     49.5639
            4          22      0.1000      0.1400   1415.7223    703.0000     49.6069
            4          23      0.1000      0.1467   1416.4945    703.0000     49.6508
            4          24      0.1000      0.1533   1417.2828    703.0000     49.6957
            4          25      0.1000      0.1600   1418.0875    703.0000     49.7416
            4          26      0.1000      0.1667   1418.9092    703.0000     49.7886
            4          27      0.1000      0.1733   1419.7479    703.0000     49.8366
            4          28      0.1000      0.1800   1420.6037    703.0000     49.8857
            4          29      0.1000      0.1867   1421.4763    703.0000     49.9358
            4          30      0.1000      0.1933   1422.3649    703.0000     49.9870
            4          31      0.1000      0.2000   1423.2687    703.0000     50.0391
            5           1      0.1333      0.0000   1402.7721    703.0000     48.8815
            5           2      0.1333      0.0067   1403.4495    703.0000     48.9189
            5           3      0.1333      0.0133   1404.1272    703.0000     48.9564
            5           4      0.1333      0.0200   1404.8052    703.0000     48.9940
            5           5      0.1333      0.0267   1405.4838    703.0000     49.0316
            5           6      0.1333      0.0333   1406.1631    703.0000     49.0694
            5           7      0.1333      0.0400   1406.8433    703.0000     49.1073
            5           8      0.1333      0.0467   1407.5247    703.0000     49.1452
            5           9      0.1333      0.0533   1408.2075    703.0000     49.1834
            5          10      0.1333      0.0600   1408.8920    703.0000     49.2217
            5          11      0.1333      0.0667   1409.5786    703.0000     49.2601
            5          12      0.1333      0.0733   1410.2676    703.0000     49.2988
            5          13      0.1333      0.0800   1410.9595    703.0000     49.3376
            5          14      0.1333      0.0867   1411.6548    703.0000     49.3768
            5          15      0.1333      0.0933   1412.3537    703.0000     49.4162
            5          16      0.1333      0.1000   1413.0569    703.0000     49.4558
            5          17      0.1333      0.1067   1413.7647    703.0000     49.4959
            5          18      0.1333      0.1133   1414.4778    703.0000     49.5362
            5          19      0.1333      0.1200   1415.1964    703.0000     49.5770
            5          20      0.1333      0.1267   1415.9212    703.0000     49.6182
            5          21      0.1333      0.1333   1416.6524    703.0000     49.6598
            5          22      0.1333      0.1400   1417.3906    703.0000     49.7018
            5          23      0.1333      0.1467   1418.1360    703.0000     49.7444
            5          24      0.1333      0.1533   1418.8889    703.0000     49.7874
            5          25      0.1333      0.1600   1419.6496    703.0000     49.8309
            5          26      0.1333      0.1667   1420.4180    703.0000     49.8750
            5          27      0.1333      0.1733   1421.1943    703.0000     49.9196
            5          28      0.1333      0.1800   1421.9784    703.0000     49.9647
            5          29      0.1333      0.1867   1422.7700    703.0000     50.0104
            5          30      0.1333      0.1933   1423.5687    703.0000     50.0565
            5          31      0.1333      0.2000   1424.3742    703.0000     50.1031
            6           1      0.1667      0.0000   1403.5454    703.0000     48.9242
            6           2      0.1667      0.0067   1404.2762    703.0000     48.9647
            6           3      0.1667      0.0133   1405.0053    703.0000     49.0051
            6           4      0.1667      0.0200   1405.7325    703.0000     49.0454
            6           5      0.1667      0.0267   1406.4578    703.0000     49.0858
            6           6      0.1667      0.0333   1407.1814    703.0000     49.1261
            6           7      0.1667      0.0400   1407.9032    703.0000     49.1664
            6           8      0.1667      0.0467   1408.6234    703.0000     49.2066
            6           9      0.1667      0.0533   1409.3419    703.0000     49.2469
            6          10      0.1667      0.0600   1410.0591    703.0000     49.2871
            6          11      0.1667      0.0667   1410.7749    703.0000     49.3273
            6          12      0.1667      0.0733   1411.4897    703.0000     49.3675
            6          13      0.1667      0.0800   1412.2036    703.0000     49.4077
            6          14      0.1667      0.0867   1412.9169    703.0000     49.4479
            6          15      0.1667      0.0933   1413.6297    703.0000     49.4882
            6          16      0.1667      0.1000   1414.3424    703.0000     49.5286
            6          17      0.1667      0.1067   1415.0551    703.0000     49.5690
            6          18      0.1667      0.1133   1415.7682    703.0000     49.6095
            6          19      0.1667      0.1200   1416.4820    703.0000     49.6501
            6          20      0.1667      0.1267   1417.1967    703.0000     49.6908
            6          21      0.1667      0.1333   1417.9125    703.0000     49.7316
            6          22      0.1667      0.1400   1418.6296    703.0000     49.7726
            6          23      0.1667      0.1467   1419.3484    703.0000     49.8137
            6          24      0.1667      0.1533   1420.0689    703.0000     49.8550
            6          25      0.1667      0.1600   1420.7913    703.0000     49.8965
            6          26      0.1667      0.1667   1421.5157    703.0000     49.9381
            6          27      0.1667      0.1733   1422.2422    703.0000     49.9799
            6          28      0.1667      0.1800   1422.9707    703.0000     50.0219
            6          29      0.1667      0.1867   1423.7013    703.0000     50.0641
            6          30      0.1667      0.1933   1424.4339    703.0000     50.1065
            6          31      0.1667      0.2000   1425.1683    703.0000     50.1491
            7           1      0.2000      0.0000   1404.1575    703.0000     48.9581
            7           2      0.2000      0.0067   1404.9305    703.0000     49.0009
            7           3      0.2000      0.0133   1405.6997    703.0000     49.0436
            7           4      0.2000      0.0200   1406.4651    703.0000     49.0862
            7           5      0.2000      0.0267   1407.2264    703.0000     49.1286
            7           6      0.2000      0.0333   1407.9837    703.0000     49.1709
            7           7      0.2000      0.0400   1408.7368    703.0000     49.2130
            7           8      0.2000      0.0467   1409.4857    703.0000     49.2549
            7           9      0.2000      0.0533   1410.2304    703.0000     49.2967
            7          10      0.2000      0.0600   1410.9709    703.0000     49.3383
            7          11      0.2000      0.0667   1411.7071    703.0000     49.3797
            7          12      0.2000      0.0733   1412.4392    703.0000     49.4210
            7          13      0.2000      0.0800   1413.1673    703.0000     49.4621
            7          14      0.2000      0.0867   1413.8914    703.0000     49.5030
            7          15      0.2000      0.0933   1414.6117    703.0000     49.5438
            7          16      0.2000      0.1000   1415.3283    703.0000     49.5845
            7          17      0.2000      0.1067   1416.0414    703.0000     49.6250
            7          18      0.2000      0.1133   1416.7510    703.0000     49.6654
            7          19      0.2000      0.1200   1417.4576    703.0000     49.7056
            7          20      0.2000      0.1267   1418.1611    703.0000     49.7458
            7          21      0.2000      0.1333   1418.8618    703.0000     49.7858
            7          22      0.2000      0.1400   1419.5598    703.0000     49.8258
            7          23      0.2000      0.1467   1420.2555    703.0000     49.8657
            7          24      0.2000      0.1533   1420.9488    703.0000     49.9055
            7          25      0.2000      0.1600   1421.6402    703.0000     49.9453
            7          26      0.2000      0.1667   1422.3295    703.0000     49.9850
            7          27      0.2000      0.1733   1423.0172    703.0000     50.0246
            7          28      0.2000      0.1800   1423.7032    703.0000     50.0642
            7          29      0.2000      0.1867   1424.3877    703.0000     50.1038
            7          30      0.2000      0.1933   1425.0708    703.0000     50.1434
            7          31      0.2000      0.2000   1425.7527    703.0000     50.1830
            8           1      0.2333      0.0000   1404.6370    703.0000     48.9846
            8           2      0.2333      0.0067   1405.4429    703.0000     49.0294
            8           3      0.2333      0.0133   1406.2434    703.0000     49.0739
            8           4      0.2333      0.0200   1407.0383    703.0000     49.1181
            8           5      0.2333      0.0267   1407.8273    703.0000     49.1621
            8           6      0.2333      0.0333   1408.6102    703.0000     49.2059
            8           7      0.2333      0.0400   1409.3870    703.0000     49.2494
            8           8      0.2333      0.0467   1410.1574    703.0000     49.2926
            8           9      0.2333      0.0533   1410.9213    703.0000     49.3355
            8          10      0.2333      0.0600   1411.6786    703.0000     49.3781
            8          11      0.2333      0.0667   1412.4294    703.0000     49.4204
            8          12      0.2333      0.0733   1413.1735    703.0000     49.4624
            8          13      0.2333      0.0800   1413.9110    703.0000     49.5041
            8          14      0.2333      0.0867   1414.6419    703.0000     49.5455
            8          15      0.2333      0.0933   1415.3662    703.0000     49.5866
            8          16      0.2333      0.1000   1416.0841    703.0000     49.6274
            8          17      0.2333      0.1067   1416.7956    703.0000     49.6679
            8          18      0.2333      0.1133   1417.5010    703.0000     49.7081
            8          19      0.2333      0.1200   1418.2002    703.0000     49.7480
            8          20      0.2333      0.1267   1418.8935    703.0000     49.7877
            8          21      0.2333      0.1333   1419.5811    703.0000     49.8270
            8          22      0.2333      0.1400   1420.2631    703.0000     49.8661
            8          23      0.2333      0.1467   1420.9398    703.0000     49.9050
            8          24      0.2333      0.1533   1421.6114    703.0000     49.9436
            8          25      0.2333      0.1600   1422.2781    703.0000     49.9820
            8          26      0.2333      0.1667   1422.9401    703.0000     50.0202
            8          27      0.2333      0.1733   1423.5978    703.0000     50.0582
            8          28      0.2333      0.1800   1424.2513    703.0000     50.0959
            8          29      0.2333      0.1867   1424.9008    703.0000     50.1336
            8          30      0.2333      0.1933   1425.5467    703.0000     50.1710
            8          31      0.2333      0.2000   1426.1892    703.0000     50.2083
            9           1      0.2667      0.0000   1405.0093    703.0000     49.0053
            9           2      0.2667      0.0067   1405.8407    703.0000     49.0515
            9           3      0.2667      0.0133   1406.6654    703.0000     49.0973
            9           4      0.2667      0.0200   1407.4830    703.0000     49.1429
            9           5      0.2667      0.0267   1408.2931    703.0000     49.1882
            9           6      0.2667      0.0333   1409.0956    703.0000     49.2331
            9           7      0.2667      0.0400   1409.8903    703.0000     49.2776
            9           8      0.2667      0.0467   1410.6767    703.0000     49.3217
            9           9      0.2667      0.0533   1411.4550    703.0000     49.3655
            9          10      0.2667      0.0600   1412.2247    703.0000     49.4089
            9          11      0.2667      0.0667   1412.9860    703.0000     49.4518
            9          12      0.2667      0.0733   1413.7386    703.0000     49.4944
            9          13      0.2667      0.0800   1414.4825    703.0000     49.5365
            9          14      0.2667      0.0867   1415.2178    703.0000     49.5782
            9          15      0.2667      0.0933   1415.9444    703.0000     49.6195
            9          16      0.2667      0.1000   1416.6624    703.0000     49.6603
            9          17      0.2667      0.1067   1417.3719    703.0000     49.7008
            9          18      0.2667      0.1133   1418.0730    703.0000     49.7408
            9          19      0.2667      0.1200   1418.7658    703.0000     49.7804
            9          20      0.2667      0.1267   1419.4505    703.0000     49.8195
            9          21      0.2667      0.1333   1420.1273    703.0000     49.8583
            9          22      0.2667      0.1400   1420.7964    703.0000     49.8967
            9          23      0.2667      0.1467   1421.4581    703.0000     49.9348
            9          24      0.2667      0.1533   1422.1125    703.0000     49.9725
            9          25      0.2667      0.1600   1422.7600    703.0000     50.0098
            9          26      0.2667      0.1667   1423.4010    703.0000     50.0468
            9          27      0.2667      0.1733   1424.0356    703.0000     50.0835
            9          28      0.2667      0.1800   1424.6642    703.0000     50.1198
            9          29      0.2667      0.1867   1425.2872    703.0000     50.1560
            9          30      0.2667      0.1933   1425.9050    703.0000     50.1918
            9          31      0.2667      0.2000   1426.5178    703.0000     50.2274
           10           1      0.3000      0.0000   1405.2956    703.0000     49.0212
           10           2      0.3000      0.0067   1406.1466    703.0000     49.0685
           10           3      0.3000      0.0133   1406.9898    703.0000     49.1154
           10           4      0.3000      0.0200   1407.8247    703.0000     49.1620
           10           5      0.3000      0.0267   1408.6510    703.0000     49.2082
           10           6      0.3000      0.0333   1409.4683    703.0000     49.2539
           10           7      0.3000      0.0400   1410.2764    703.0000     49.2993
           10           8      0.3000      0.0467   1411.0750    703.0000     49.3441
           10           9      0.3000      0.0533   1411.8639    703.0000     49.3885
           10          10      0.3000      0.0600   1412.6429    703.0000     49.4325
           10          11      0.3000      0.0667   1413.4118    703.0000     49.4759
           10          12      0.3000      0.0733   1414.1705    703.0000     49.5188
           10          13      0.3000      0.0800   1414.9190    703.0000     49.5613
           10          14      0.3000      0.0867   1415.6572    703.0000     49.6032
           10          15      0.3000      0.0933   1416.3851    703.0000     49.6445
           10          16      0.3000      0.1000   1417.1028    703.0000     49.6854
           10          17      0.3000      0.1067   1417.8103    703.0000     49.7258
           10          18      0.3000      0.1133   1418.5078    703.0000     49.7656
           10          19      0.3000      0.1200   1419.1953    703.0000     49.8049
           10          20      0.3000      0.1267   1419.8731    703.0000     49.8438
           10          21      0.3000      0.1333   1420.5413    703.0000     49.8821
           10          22      0.3000      0.1400   1421.2002    703.0000     49.9200
           10          23      0.3000      0.1467   1421.8501    703.0000     49.9573
           10          24      0.3000      0.1533   1422.4913    703.0000     49.9943
           10          25      0.3000      0.1600   1423.1241    703.0000     50.0308
           10          26      0.3000      0.1667   1423.7488    703.0000     50.0669
           10          27      0.3000      0.1733   1424.3658    703.0000     50.1026
           10          28      0.3000      0.1800   1424.9756    703.0000     50.1379
           10          29      0.3000      0.1867   1425.5785    703.0000     50.1728
           10          30      0.3000      0.1933   1426.1749    703.0000     50.2075
           10          31      0.3000      0.2000   1426.7654    703.0000     50.2418
           11           1      0.3333      0.0000   1405.5129    703.0000     49.0332
           11           2      0.3333      0.0067   1406.3788    703.0000     49.0814
           11           3      0.3333      0.0133   1407.2360    703.0000     49.1291
           11           4      0.3333      0.0200   1408.0840    703.0000     49.1765
           11           5      0.3333      0.0267   1408.9225    703.0000     49.2234
           11           6      0.3333      0.0333   1409.7510    703.0000     49.2698
           11           7      0.3333      0.0400   1410.5692    703.0000     49.3157
           11           8      0.3333      0.0467   1411.3768    703.0000     49.3611
           11           9      0.3333      0.0533   1412.1737    703.0000     49.4060
           11          10      0.3333      0.0600   1412.9594    703.0000     49.4503
           11          11      0.3333      0.0667   1413.7340    703.0000     49.4941
           11          12      0.3333      0.0733   1414.4971    703.0000     49.5373
           11          13      0.3333      0.0800   1415.2489    703.0000     49.5800
           11          14      0.3333      0.0867   1415.9891    703.0000     49.6220
           11          15      0.3333      0.0933   1416.7178    703.0000     49.6635
           11          16      0.3333      0.1000   1417.4350    703.0000     49.7043
           11          17      0.3333      0.1067   1418.1408    703.0000     49.7446
           11          18      0.3333      0.1133   1418.8353    703.0000     49.7843
           11          19      0.3333      0.1200   1419.5186    703.0000     49.8234
           11          20      0.3333      0.1267   1420.1909    703.0000     49.8620
           11          21      0.3333      0.1333   1420.8525    703.0000     49.9000
           11          22      0.3333      0.1400   1421.5037    703.0000     49.9374
           11          23      0.3333      0.1467   1422.1446    703.0000     49.9743
           11          24      0.3333      0.1533   1422.7756    703.0000     50.0107
           11          25      0.3333      0.1600   1423.3972    703.0000     50.0466
           11          26      0.3333      0.1667   1424.0097    703.0000     50.0820
           11          27      0.3333      0.1733   1424.6134    703.0000     50.1169
           11          28      0.3333      0.1800   1425.2090    703.0000     50.1514
           11          29      0.3333      0.1867   1425.7967    703.0000     50.1855
           11          30      0.3333      0.1933   1426.3772    703.0000     50.2192
           11          31      0.3333      0.2000   1426.9510    703.0000     50.2526
           12           1      0.3667      0.0000   1405.6746    703.0000     49.0422
           12           2      0.3667      0.0067   1406.5515    703.0000     49.0910
           12           3      0.3667      0.0133   1407.4191    703.0000     49.1394
           12           4      0.3667      0.0200   1408.2769    703.0000     49.1873
           12           5      0.3667      0.0267   1409.1243    703.0000     49.2347
           12           6      0.3667      0.0333   1409.9611    703.0000     49.2816
           12           7      0.3667      0.0400   1410.7868    703.0000     49.3279
           12           8      0.3667      0.0467   1411.6011    703.0000     49.3737
           12           9      0.3667      0.0533   1412.4037    703.0000     49.4190
           12          10      0.3667      0.0600   1413.1945    703.0000     49.4636
           12          11      0.3667      0.0667   1413.9731    703.0000     49.5077
           12          12      0.3667      0.0733   1414.7395    703.0000     49.5511
           12          13      0.3667      0.0800   1415.4935    703.0000     49.5939
           12          14      0.3667      0.0867   1416.2351    703.0000     49.6360
           12          15      0.3667      0.0933   1416.9643    703.0000     49.6775
           12          16      0.3667      0.1000   1417.6811    703.0000     49.7184
           12          17      0.3667      0.1067   1418.3855    703.0000     49.7586
           12          18      0.3667      0.1133   1419.0777    703.0000     49.7982
           12          19      0.3667      0.1200   1419.7578    703.0000     49.8372
           12          20      0.3667      0.1267   1420.4260    703.0000     49.8755
           12          21      0.3667      0.1333   1421.0827    703.0000     49.9132
           12          22      0.3667      0.1400   1421.7279    703.0000     49.9503
           12          23      0.3667      0.1467   1422.3621    703.0000     49.9868
           12          24      0.3667      0.1533   1422.9857    703.0000     50.0228
           12          25      0.3667      0.1600   1423.5989    703.0000     50.0582
           12          26      0.3667      0.1667   1424.2022    703.0000     50.0931
           12          27      0.3667      0.1733   1424.7962    703.0000     50.1275
           12          28      0.3667      0.1800   1425.3812    703.0000     50.1614
           12          29      0.3667      0.1867   1425.9577    703.0000     50.1949
           12          30      0.3667      0.1933   1426.5264    703.0000     50.2279
           12          31      0.3667      0.2000   1427.0878    703.0000     50.2606
           13           1      0.4000      0.0000   1405.7907    703.0000     49.0487
           13           2      0.4000      0.0067   1406.6756    703.0000     49.0979
           13           3      0.4000      0.0133   1407.5507    703.0000     49.1467
           13           4      0.4000      0.0200   1408.4154    703.0000     49.1950
           13           5      0.4000      0.0267   1409.2693    703.0000     49.2428
           13           6      0.4000      0.0333   1410.1120    703.0000     49.2900
           13           7      0.4000      0.0400   1410.9430    703.0000     49.3367
           13           8      0.4000      0.0467   1411.7621    703.0000     49.3828
           13           9      0.4000      0.0533   1412.5689    703.0000     49.4283
           13          10      0.4000      0.0600   1413.3631    703.0000     49.4732
           13          11      0.4000      0.0667   1414.1447    703.0000     49.5174
           13          12      0.4000      0.0733   1414.9133    703.0000     49.5609
           13          13      0.4000      0.0800   1415.6689    703.0000     49.6038
           13          14      0.4000      0.0867   1416.4115    703.0000     49.6460
           13          15      0.4000      0.0933   1417.1410    703.0000     49.6876
           13          16      0.4000      0.1000   1417.8574    703.0000     49.7284
           13          17      0.4000      0.1067   1418.5608    703.0000     49.7686
           13          18      0.4000      0.1133   1419.2513    703.0000     49.8081
           13          19      0.4000      0.1200   1419.9291    703.0000     49.8470
           13          20      0.4000      0.1267   1420.5943    703.0000     49.8851
           13          21      0.4000      0.1333   1421.2473    703.0000     49.9227
           13          22      0.4000      0.1400   1421.8884    703.0000     49.9595
           13          23      0.4000      0.1467   1422.5177    703.0000     49.9958
           13          24      0.4000      0.1533   1423.1358    703.0000     50.0315
           13          25      0.4000      0.1600   1423.7431    703.0000     50.0665
           13          26      0.4000      0.1667   1424.3399    703.0000     50.1011
           13          27      0.4000      0.1733   1424.9268    703.0000     50.1351
           13          28      0.4000      0.1800   1425.5042    703.0000     50.1685
           13          29      0.4000      0.1867   1426.0728    703.0000     50.2015
           13          30      0.4000      0.1933   1426.6331    703.0000     50.2341
           13          31      0.4000      0.2000   1427.1856    703.0000     50.2663
           14           1      0.4333      0.0000   1405.8687    703.0000     49.0530
           14           2      0.4333      0.0067   1406.7590    703.0000     49.1026
           14           3      0.4333      0.0133   1407.6390    703.0000     49.1516
           14           4      0.4333      0.0200   1408.5084    703.0000     49.2002
           14           5      0.4333      0.0267   1409.3667    703.0000     49.2482
           14           6      0.4333      0.0333   1410.2133    703.0000     49.2957
           14           7      0.4333      0.0400   1411.0479    703.0000     49.3426
           14           8      0.4333      0.0467   1411.8701    703.0000     49.3889
           14           9      0.4333      0.0533   1412.6797    703.0000     49.4345
           14          10      0.4333      0.0600   1413.4763    703.0000     49.4795
           14          11      0.4333      0.0667   1414.2598    703.0000     49.5239
           14          12      0.4333      0.0733   1415.0299    703.0000     49.5675
           14          13      0.4333      0.0800   1415.7866    703.0000     49.6105
           14          14      0.4333      0.0867   1416.5298    703.0000     49.6528
           14          15      0.4333      0.0933   1417.2594    703.0000     49.6943
           14          16      0.4333      0.1000   1417.9756    703.0000     49.7352
           14          17      0.4333      0.1067   1418.6782    703.0000     49.7753
           14          18      0.4333      0.1133   1419.3676    703.0000     49.8148
           14          19      0.4333      0.1200   1420.0438    703.0000     49.8535
           14          20      0.4333      0.1267   1420.7071    703.0000     49.8916
           14          21      0.4333      0.1333   1421.3576    703.0000     49.9290
           14          22      0.4333      0.1400   1421.9958    703.0000     49.9657
           14          23      0.4333      0.1467   1422.6219    703.0000     50.0018
           14          24      0.4333      0.1533   1423.2364    703.0000     50.0373
           14          25      0.4333      0.1600   1423.8396    703.0000     50.0721
           14          26      0.4333      0.1667   1424.4321    703.0000     50.1064
           14          27      0.4333      0.1733   1425.0142    703.0000     50.1401
           14          28      0.4333      0.1800   1425.5866    703.0000     50.1733
           14          29      0.4333      0.1867   1426.1498    703.0000     50.2060
           14          30      0.4333      0.1933   1426.7044    703.0000     50.2383
           14          31      0.4333      0.2000   1427.2511    703.0000     50.2701
           15           1      0.4667      0.0000   1405.9136    703.0000     49.0555
           15           2      0.4667      0.0067   1406.8069    703.0000     49.1052
           15           3      0.4667      0.0133   1407.6899    703.0000     49.1545
           15           4      0.4667      0.0200   1408.5619    703.0000     49.2032
           15           5      0.4667      0.0267   1409.4227    703.0000     49.2514
           15           6      0.4667      0.0333   1410.2715    703.0000     49.2990
           15           7      0.4667      0.0400   1411.1082    703.0000     49.3460
           15           8      0.4667      0.0467   1411.9323    703.0000     49.3924
           15           9      0.4667      0.0533   1412.7434    703.0000     49.4381
           15          10      0.4667      0.0600   1413.5414    703.0000     49.4832
           15          11      0.4667      0.0667   1414.3260    703.0000     49.5276
           15          12      0.4667      0.0733   1415.0970    703.0000     49.5713
           15          13      0.4667      0.0800   1415.8543    703.0000     49.6144
           15          14      0.4667      0.0867   1416.5978    703.0000     49.6566
           15          15      0.4667      0.0933   1417.3275    703.0000     49.6982
           15          16      0.4667      0.1000   1418.0435    703.0000     49.7391
           15          17      0.4667      0.1067   1418.7458    703.0000     49.7792
           15          18      0.4667      0.1133   1419.4345    703.0000     49.8186
           15          19      0.4667      0.1200   1420.1098    703.0000     49.8573
           15          20      0.4667      0.1267   1420.7719    703.0000     49.8953
           15          21      0.4667      0.1333   1421.4210    703.0000     49.9327
           15          22      0.4667      0.1400   1422.0576    703.0000     49.9693
           15          23      0.4667      0.1467   1422.6818    703.0000     50.0053
           15          24      0.4667      0.1533   1423.2942    703.0000     50.0406
           15          25      0.4667      0.1600   1423.8951    703.0000     50.0753
           15          26      0.4667      0.1667   1424.4850    703.0000     50.1095
           15          27      0.4667      0.1733   1425.0644    703.0000     50.1430
           15          28      0.4667      0.1800   1425.6339    703.0000     50.1761
           15          29      0.4667      0.1867   1426.1941    703.0000     50.2086
           15          30      0.4667      0.1933   1426.7454    703.0000     50.2406
           15          31      0.4667      0.2000   1427.2887    703.0000     50.2723
           16           1      0.5000      0.0000   1405.9282    703.0000     49.0563
           16           2      0.5000      0.0067   1406.8226    703.0000     49.1061
           16           3      0.5000      0.0133   1407.7065    703.0000     49.1554
           16           4      0.5000      0.0200   1408.5794    703.0000     49.2042
           16           5      0.5000      0.0267   1409.4410    703.0000     49.2524
           16           6      0.5000      0.0333   1410.2906    703.0000     49.3001
           16           7      0.5000      0.0400   1411.1279    703.0000     49.3471
           16           8      0.5000      0.0467   1411.9526    703.0000     49.3935
           16           9      0.5000      0.0533   1412.7642    703.0000     49.4393
           16          10      0.5000      0.0600   1413.5626    703.0000     49.4844
           16          11      0.5000      0.0667   1414.3476    703.0000     49.5289
           16          12      0.5000      0.0733   1415.1189    703.0000     49.5726
           16          13      0.5000      0.0800   1415.8764    703.0000     49.6156
           16          14      0.5000      0.0867   1416.6200    703.0000     49.6579
           16          15      0.5000      0.0933   1417.3498    703.0000     49.6995
           16          16      0.5000      0.1000   1418.0657    703.0000     49.7403
           16          17      0.5000      0.1067   1418.7678    703.0000     49.7805
           16          18      0.5000      0.1133   1419.4563    703.0000     49.8199
           16          19      0.5000      0.1200   1420.1313    703.0000     49.8586
           16          20      0.5000      0.1267   1420.7930    703.0000     49.8966
           16          21      0.5000      0.1333   1421.4417    703.0000     49.9338
           16          22      0.5000      0.1400   1422.0777    703.0000     49.9705
           16          23      0.5000      0.1467   1422.7014    703.0000     50.0064
           16          24      0.5000      0.1533   1423.3130    703.0000     50.0417
           16          25      0.5000      0.1600   1423.9132    703.0000     50.0764
           16          26      0.5000      0.1667   1424.5023    703.0000     50.1105
           16          27      0.5000      0.1733   1425.0808    703.0000     50.1440
           16          28      0.5000      0.1800   1425.6494    703.0000     50.1770
           16          29      0.5000      0.1867   1426.2085    703.0000     50.2094
           16          30      0.5000      0.1933   1426.7588    703.0000     50.2414
           16          31      0.5000      0.2000   1427.3009    703.0000     50.2730
           17           1      0.5333      0.0000   1405.9137    703.0000     49.0555
           17           2      0.5333      0.0067   1406.8070    703.0000     49.1052
           17           3      0.5333      0.0133   1407.6899    703.0000     49.1545
           17           4      0.5333      0.0200   1408.5620    703.0000     49.2032
           17           5      0.5333      0.0267   1409.4228    703.0000     49.2514
           17           6      0.5333      0.0333   1410.2716    703.0000     49.2990
           17           7      0.5333      0.0400   1411.1083    703.0000     49.3460
           17           8      0.5333      0.0467   1411.9324    703.0000     49.3924
           17           9      0.5333      0.0533   1412.7435    703.0000     49.4382
           17          10      0.5333      0.0600   1413.5415    703.0000     49.4832
           17          11      0.5333      0.0667   1414.3261    703.0000     49.5276
           17          12      0.5333      0.0733   1415.0971    703.0000     49.5714
           17          13      0.5333      0.0800   1415.8544    703.0000     49.6144
           17          14      0.5333      0.0867   1416.5979    703.0000     49.6567
           17          15      0.5333      0.0933   1417.3276    703.0000     49.6982
           17          16      0.5333      0.1000   1418.0436    703.0000     49.7391
           17          17      0.5333      0.1067   1418.7459    703.0000     49.7792
           17          18      0.5333      0.1133   1419.4346    703.0000     49.8186
           17          19      0.5333      0.1200   1420.1099    703.0000     49.8573
           17          20      0.5333      0.1267   1420.7720    703.0000     49.8953
           17          21      0.5333      0.1333   1421.4211    703.0000     49.9327
           17          22      0.5333      0.1400   1422.0577    703.0000     49.9693
           17          23      0.5333      0.1467   1422.6819    703.0000     50.0053
           17          24      0.5333      0.1533   1423.2943    703.0000     50.0406
           17          25      0.5333      0.1600   1423.8952    703.0000     50.0753
           17          26      0.5333      0.1667   1424.4851    703.0000     50.1095
           17          27      0.5333      0.1733   1425.0645    703.0000     50.1430
           17          28      0.5333      0.1800   1425.6340    703.0000     50.1761
           17          29      0.5333      0.1867   1426.1941    703.0000     50.2086
           17          30      0.5333      0.1933   1426.7455    703.0000     50.2407
           17          31      0.5333      0.2000   1427.2887    703.0000     50.2723
           18           1      0.5667      0.0000   1405.8689    703.0000     49.0530
           18           2      0.5667      0.0067   1406.7591    703.0000     49.1026
           18           3      0.5667      0.0133   1407.6392    703.0000     49.1516
           18           4      0.5667      0.0200   1408.5086    703.0000     49.2002
           18           5      0.5667      0.0267   1409.3669    703.0000     49.2482
           18           6      0.5667      0.0333   1410.2135    703.0000     49.2957
           18           7      0.5667      0.0400   1411.0481    703.0000     49.3426
           18           8      0.5667      0.0467   1411.8703    703.0000     49.3889
           18           9      0.5667      0.0533   1412.6799    703.0000     49.4346
           18          10      0.5667      0.0600   1413.4765    703.0000     49.4796
           18          11      0.5667      0.0667   1414.2600    703.0000     49.5239
           18          12      0.5667      0.0733   1415.0301    703.0000     49.5676
           18          13      0.5667      0.0800   1415.7868    703.0000     49.6105
           18          14      0.5667      0.0867   1416.5300    703.0000     49.6528
           18          15      0.5667      0.0933   1417.2597    703.0000     49.6944
           18          16      0.5667      0.1000   1417.9758    703.0000     49.7352
           18          17      0.5667      0.1067   1418.6785    703.0000     49.7754
           18          18      0.5667      0.1133   1419.3678    703.0000     49.8148
           18          19      0.5667      0.1200   1420.0440    703.0000     49.8536
           18          20      0.5667      0.1267   1420.7073    703.0000     49.8916
           18          21      0.5667      0.1333   1421.3579    703.0000     49.9290
           18          22      0.5667      0.1400   1421.9960    703.0000     49.9657
           18          23      0.5667      0.1467   1422.6222    703.0000     50.0018
           18          24      0.5667      0.1533   1423.2366    703.0000     50.0373
           18          25      0.5667      0.1600   1423.8398    703.0000     50.0721
           18          26      0.5667      0.1667   1424.4323    703.0000     50.1064
           18          27      0.5667      0.1733   1425.0144    703.0000     50.1401
           18          28      0.5667      0.1800   1425.5868    703.0000     50.1733
           18          29      0.5667      0.1867   1426.1500    703.0000     50.2060
           18          30      0.5667      0.1933   1426.7046    703.0000     50.2383
           18          31      0.5667      0.2000   1427.2512    703.0000     50.2701
           19           1      0.6000      0.0000   1405.7910    703.0000     49.0487
           19           2      0.6000      0.0067   1406.6759    703.0000     49.0979
           19           3      0.6000      0.0133   1407.5510    703.0000     49.1467
           19           4      0.6000      0.0200   1408.4157    703.0000     49.1950
           19           5      0.6000      0.0267   1409.2696    703.0000     49.2428
           19           6      0.6000      0.0333   1410.1123    703.0000     49.2901
           19           7      0.6000      0.0400   1410.9434    703.0000     49.3367
           19           8      0.6000      0.0467   1411.7624    703.0000     49.3828
           19           9      0.6000      0.0533   1412.5692    703.0000     49.4283
           19          10      0.6000      0.0600   1413.3635    703.0000     49.4732
           19          11      0.6000      0.0667   1414.1450    703.0000     49.5174
           19          12      0.6000      0.0733   1414.9137    703.0000     49.5609
           19          13      0.6000      0.0800   1415.6693    703.0000     49.6038
           19          14      0.6000      0.0867   1416.4119    703.0000     49.6461
           19          15      0.6000      0.0933   1417.1414    703.0000     49.6876
           19          16      0.6000      0.1000   1417.8577    703.0000     49.7285
           19          17      0.6000      0.1067   1418.5611    703.0000     49.7687
           19          18      0.6000      0.1133   1419.2516    703.0000     49.8082
           19          19      0.6000      0.1200   1419.9294    703.0000     49.8470
           19          20      0.6000      0.1267   1420.5947    703.0000     49.8852
           19          21      0.6000      0.1333   1421.2477    703.0000     49.9227
           19          22      0.6000      0.1400   1421.8887    703.0000     49.9596
           19          23      0.6000      0.1467   1422.5181    703.0000     49.9958
           19          24      0.6000      0.1533   1423.1362    703.0000     50.0315
           19          25      0.6000      0.1600   1423.7434    703.0000     50.0666
           19          26      0.6000      0.1667   1424.3402    703.0000     50.1011
           19          27      0.6000      0.1733   1424.9271    703.0000     50.1351
           19          28      0.6000      0.1800   1425.5045    703.0000     50.1686
           19          29      0.6000      0.1867   1426.0731    703.0000     50.2016
           19          30      0.6000      0.1933   1426.6333    703.0000     50.2341
           19          31      0.6000      0.2000   1427.1858    703.0000     50.2663
           20           1      0.6333      0.0000   1405.6750    703.0000     49.0422
           20           2      0.6333      0.0067   1406.5520    703.0000     49.0910
           20           3      0.6333      0.0133   1407.4196    703.0000     49.1394
           20           4      0.6333      0.0200   1408.2773    703.0000     49.1873
           20           5      0.6333      0.0267   1409.1248    703.0000     49.2347
           20           6      0.6333      0.0333   1409.9616    703.0000     49.2816
           20           7      0.6333      0.0400   1410.7873    703.0000     49.3280
           20           8      0.6333      0.0467   1411.6016    703.0000     49.3738
           20           9      0.6333      0.0533   1412.4043    703.0000     49.4190
           20          10      0.6333      0.0600   1413.1950    703.0000     49.4637
           20          11      0.6333      0.0667   1413.9737    703.0000     49.5077
           20          12      0.6333      0.0733   1414.7401    703.0000     49.5511
           20          13      0.6333      0.0800   1415.4941    703.0000     49.5939
           20          14      0.6333      0.0867   1416.2357    703.0000     49.6360
           20          15      0.6333      0.0933   1416.9649    703.0000     49.6775
           20          16      0.6333      0.1000   1417.6816    703.0000     49.7184
           20          17      0.6333      0.1067   1418.3860    703.0000     49.7586
           20          18      0.6333      0.1133   1419.0782    703.0000     49.7982
           20          19      0.6333      0.1200   1419.7584    703.0000     49.8372
           20          20      0.6333      0.1267   1420.4266    703.0000     49.8755
           20          21      0.6333      0.1333   1421.0832    703.0000     49.9132
           20          22      0.6333      0.1400   1421.7284    703.0000     49.9503
           20          23      0.6333      0.1467   1422.3626    703.0000     49.9869
           20          24      0.6333      0.1533   1422.9861    703.0000     50.0228
           20          25      0.6333      0.1600   1423.5994    703.0000     50.0582
           20          26      0.6333      0.1667   1424.2027    703.0000     50.0931
           20          27      0.6333      0.1733   1424.7966    703.0000     50.1275
           20          28      0.6333      0.1800   1425.3816    703.0000     50.1614
           20          29      0.6333      0.1867   1425.9581    703.0000     50.1949
           20          30      0.6333      0.1933   1426.5268    703.0000     50.2279
           20          31      0.6333      0.2000   1427.0881    703.0000     50.2606
           21           1      0.6667      0.0000   1405.5135    703.0000     49.0333
           21           2      0.6667      0.0067   1406.3794    703.0000     49.0814
           21           3      0.6667      0.0133   1407.2366    703.0000     49.1292
           21           4      0.6667      0.0200   1408.0847    703.0000     49.1765
           21           5      0.6667      0.0267   1408.9232    703.0000     49.2234
           21           6      0.6667      0.0333   1409.7517    703.0000     49.2698
           21           7      0.6667      0.0400   1410.5699    703.0000     49.3157
           21           8      0.6667      0.0467   1411.3776    703.0000     49.3612
           21           9      0.6667      0.0533   1412.1744    703.0000     49.4060
           21          10      0.6667      0.0600   1412.9602    703.0000     49.4504
           21          11      0.6667      0.0667   1413.7348    703.0000     49.4942
           21          12      0.6667      0.0733   1414.4979    703.0000     49.5374
           21          13      0.6667      0.0800   1415.2497    703.0000     49.5800
           21          14      0.6667      0.0867   1415.9899    703.0000     49.6221
           21          15      0.6667      0.0933   1416.7186    703.0000     49.6635
           21          16      0.6667      0.1000   1417.4358    703.0000     49.7044
           21          17      0.6667      0.1067   1418.1416    703.0000     49.7447
           21          18      0.6667      0.1133   1418.8361    703.0000     49.7844
           21          19      0.6667      0.1200   1419.5194    703.0000     49.8235
           21          20      0.6667      0.1267   1420.1917    703.0000     49.8620
           21          21      0.6667      0.1333   1420.8533    703.0000     49.9000
           21          22      0.6667      0.1400   1421.5044    703.0000     49.9374
           21          23      0.6667      0.1467   1422.1453    703.0000     49.9743
           21          24      0.6667      0.1533   1422.7763    703.0000     50.0107
           21          25      0.6667      0.1600   1423.3979    703.0000     50.0466
           21          26      0.6667      0.1667   1424.0103    703.0000     50.0820
           21          27      0.6667      0.1733   1424.6140    703.0000     50.1169
           21          28      0.6667      0.1800   1425.2095    703.0000     50.1514
           21          29      0.6667      0.1867   1425.7973    703.0000     50.1855
           21          30      0.6667      0.1933   1426.3777    703.0000     50.2193
           21          31      0.6667      0.2000   1426.9514    703.0000     50.2526
           22           1      0.7000      0.0000   1405.2964    703.0000     49.0212
           22           2      0.7000      0.0067   1406.1474    703.0000     49.0685
           22           3      0.7000      0.0133   1406.9907    703.0000     49.1155
           22           4      0.7000      0.0200   1407.8256    703.0000     49.1620
           22           5      0.7000      0.0267   1408.6520    703.0000     49.2082
           22           6      0.7000      0.0333   1409.4693    703.0000     49.2540
           22           7      0.7000      0.0400   1410.2775    703.0000     49.2993
           22           8      0.7000      0.0467   1411.0761    703.0000     49.3442
           22           9      0.7000      0.0533   1411.8650    703.0000     49.3886
           22          10      0.7000      0.0600   1412.6440    703.0000     49.4325
           22          11      0.7000      0.0667   1413.4129    703.0000     49.4760
           22          12      0.7000      0.0733   1414.1717    703.0000     49.5189
           22          13      0.7000      0.0800   1414.9202    703.0000     49.5613
           22          14      0.7000      0.0867   1415.6584    703.0000     49.6032
           22          15      0.7000      0.0933   1416.3863    703.0000     49.6446
           22          16      0.7000      0.1000   1417.1040    703.0000     49.6855
           22          17      0.7000      0.1067   1417.8115    703.0000     49.7258
           22          18      0.7000      0.1133   1418.5089    703.0000     49.7657
           22          19      0.7000      0.1200   1419.1964    703.0000     49.8050
           22          20      0.7000      0.1267   1419.8741    703.0000     49.8438
           22          21      0.7000      0.1333   1420.5424    703.0000     49.8822
           22          22      0.7000      0.1400   1421.2013    703.0000     49.9200
           22          23      0.7000      0.1467   1421.8511    703.0000     49.9574
           22          24      0.7000      0.1533   1422.4923    703.0000     49.9943
           22          25      0.7000      0.1600   1423.1250    703.0000     50.0308
           22          26      0.7000      0.1667   1423.7497    703.0000     50.0669
           22          27      0.7000      0.1733   1424.3667    703.0000     50.1026
           22          28      0.7000      0.1800   1424.9764    703.0000     50.1379
           22          29      0.7000      0.1867   1425.5792    703.0000     50.1729
           22          30      0.7000      0.1933   1426.1756    703.0000     50.2075
           22          31      0.7000      0.2000   1426.7661    703.0000     50.2418
           23           1      0.7333      0.0000   1405.0104    703.0000     49.0053
           23           2      0.7333      0.0067   1405.8418    703.0000     49.0515
           23           3      0.7333      0.0133   1406.6666    703.0000     49.0974
           23           4      0.7333      0.0200   1407.4842    703.0000     49.1430
           23           5      0.7333      0.0267   1408.2944    703.0000     49.1882
           23           6      0.7333      0.0333   1409.0970    703.0000     49.2331
           23           7      0.7333      0.0400   1409.8917    703.0000     49.2777
           23           8      0.7333      0.0467   1410.6782    703.0000     49.3218
           23           9      0.7333      0.0533   1411.4564    703.0000     49.3656
           23          10      0.7333      0.0600   1412.2262    703.0000     49.4090
           23          11      0.7333      0.0667   1412.9875    703.0000     49.4519
           23          12      0.7333      0.0733   1413.7401    703.0000     49.4945
           23          13      0.7333      0.0800   1414.4841    703.0000     49.5366
           23          14      0.7333      0.0867   1415.2194    703.0000     49.5783
           23          15      0.7333      0.0933   1415.9460    703.0000     49.6196
           23          16      0.7333      0.1000   1416.6640    703.0000     49.6604
           23          17      0.7333      0.1067   1417.3735    703.0000     49.7008
           23          18      0.7333      0.1133   1418.0746    703.0000     49.7408
           23          19      0.7333      0.1200   1418.7673    703.0000     49.7804
           23          20      0.7333      0.1267   1419.4520    703.0000     49.8196
           23          21      0.7333      0.1333   1420.1288    703.0000     49.8584
           23          22      0.7333      0.1400   1420.7979    703.0000     49.8968
           23          23      0.7333      0.1467   1421.4595    703.0000     49.9349
           23          24      0.7333      0.1533   1422.1138    703.0000     49.9725
           23          25      0.7333      0.1600   1422.7613    703.0000     50.0099
           23          26      0.7333      0.1667   1423.4022    703.0000     50.0468
           23          27      0.7333      0.1733   1424.0367    703.0000     50.0835
           23          28      0.7333      0.1800   1424.6653    703.0000     50.1199
           23          29      0.7333      0.1867   1425.2882    703.0000     50.1560
           23          30      0.7333      0.1933   1425.9059    703.0000     50.1919
           23          31      0.7333      0.2000   1426.5187    703.0000     50.2275
           24           1      0.7667      0.0000   1404.6384    703.0000     48.9847
           24           2      0.7667      0.0067   1405.4444    703.0000     49.0294
           24           3      0.7667      0.0133   1406.2450    703.0000     49.0739
           24           4      0.7667      0.0200   1407.0400    703.0000     49.1182
           24           5      0.7667      0.0267   1407.8291    703.0000     49.1622
           24           6      0.7667      0.0333   1408.6121    703.0000     49.2060
           24           7      0.7667      0.0400   1409.3889    703.0000     49.2495
           24           8      0.7667      0.0467   1410.1593    703.0000     49.2927
           24           9      0.7667      0.0533   1410.9233    703.0000     49.3356
           24          10      0.7667      0.0600   1411.6807    703.0000     49.3782
           24          11      0.7667      0.0667   1412.4315    703.0000     49.4205
           24          12      0.7667      0.0733   1413.1756    703.0000     49.4626
           24          13      0.7667      0.0800   1413.9131    703.0000     49.5043
           24          14      0.7667      0.0867   1414.6440    703.0000     49.5457
           24          15      0.7667      0.0933   1415.3684    703.0000     49.5868
           24          16      0.7667      0.1000   1416.0863    703.0000     49.6275
           24          17      0.7667      0.1067   1416.7978    703.0000     49.6680
           24          18      0.7667      0.1133   1417.5031    703.0000     49.7082
           24          19      0.7667      0.1200   1418.2023    703.0000     49.7481
           24          20      0.7667      0.1267   1418.8955    703.0000     49.7878
           24          21      0.7667      0.1333   1419.5831    703.0000     49.8271
           24          22      0.7667      0.1400   1420.2651    703.0000     49.8662
           24          23      0.7667      0.1467   1420.9417    703.0000     49.9051
           24          24      0.7667      0.1533   1421.6132    703.0000     49.9437
           24          25      0.7667      0.1600   1422.2798    703.0000     49.9821
           24          26      0.7667      0.1667   1422.9418    703.0000     50.0203
           24          27      0.7667      0.1733   1423.5994    703.0000     50.0582
           24          28      0.7667      0.1800   1424.2528    703.0000     50.0960
           24          29      0.7667      0.1867   1424.9022    703.0000     50.1336
           24          30      0.7667      0.1933   1425.5480    703.0000     50.1711
           24          31      0.7667      0.2000   1426.1904    703.0000     50.2084
           25           1      0.8000      0.0000   1404.1594    703.0000     48.9582
           25           2      0.8000      0.0067   1404.9325    703.0000     49.0010
           25           3      0.8000      0.0133   1405.7019    703.0000     49.0437
           25           4      0.8000      0.0200   1406.4673    703.0000     49.0863
           25           5      0.8000      0.0267   1407.2288    703.0000     49.1287
           25           6      0.8000      0.0333   1407.9862    703.0000     49.1710
           25           7      0.8000      0.0400   1408.7394    703.0000     49.2131
           25           8      0.8000      0.0467   1409.4884    703.0000     49.2551
           25           9      0.8000      0.0533   1410.2331    703.0000     49.2968
           25          10      0.8000      0.0600   1410.9736    703.0000     49.3384
           25          11      0.8000      0.0667   1411.7099    703.0000     49.3799
           25          12      0.8000      0.0733   1412.4421    703.0000     49.4211
           25          13      0.8000      0.0800   1413.1702    703.0000     49.4622
           25          14      0.8000      0.0867   1413.8943    703.0000     49.5032
           25          15      0.8000      0.0933   1414.6146    703.0000     49.5440
           25          16      0.8000      0.1000   1415.3312    703.0000     49.5846
           25          17      0.8000      0.1067   1416.0442    703.0000     49.6252
           25          18      0.8000      0.1133   1416.7539    703.0000     49.6655
           25          19      0.8000      0.1200   1417.4604    703.0000     49.7058
           25          20      0.8000      0.1267   1418.1638    703.0000     49.7459
           25          21      0.8000      0.1333   1418.8645    703.0000     49.7860
           25          22      0.8000      0.1400   1419.5625    703.0000     49.8260
           25          23      0.8000      0.1467   1420.2580    703.0000     49.8658
           25          24      0.8000      0.1533   1420.9513    703.0000     49.9056
           25          25      0.8000      0.1600   1421.6425    703.0000     49.9454
           25          26      0.8000      0.1667   1422.3318    703.0000     49.9851
           25          27      0.8000      0.1733   1423.0193    703.0000     50.0247
           25          28      0.8000      0.1800   1423.7052    703.0000     50.0644
           25          29      0.8000      0.1867   1424.3896    703.0000     50.1039
           25          30      0.8000      0.1933   1425.0726    703.0000     50.1435
           25          31      0.8000      0.2000   1425.7543    703.0000     50.1831
           26           1      0.8333      0.0000   1403.5480    703.0000     48.9243
           26           2      0.8333      0.0067   1404.2790    703.0000     48.9648
           26           3      0.8333      0.0133   1405.0082    703.0000     49.0052
           26           4      0.8333      0.0200   1405.7355    703.0000     49.0456
           26           5      0.8333      0.0267   1406.4610    703.0000     49.0860
           26           6      0.8333      0.0333   1407.1847    703.0000     49.1263
           26           7      0.8333      0.0400   1407.9066    703.0000     49.1666
           26           8      0.8333      0.0467   1408.6269    703.0000     49.2068
           26           9      0.8333      0.0533   1409.3456    703.0000     49.2471
           26          10      0.8333      0.0600   1410.0628    703.0000     49.2873
           26          11      0.8333      0.0667   1410.7787    703.0000     49.3275
           26          12      0.8333      0.0733   1411.4935    703.0000     49.3677
           26          13      0.8333      0.0800   1412.2075    703.0000     49.4079
           26          14      0.8333      0.0867   1412.9207    703.0000     49.4482
           26          15      0.8333      0.0933   1413.6336    703.0000     49.4884
           26          16      0.8333      0.1000   1414.3462    703.0000     49.5288
           26          17      0.8333      0.1067   1415.0590    703.0000     49.5692
           26          18      0.8333      0.1133   1415.7720    703.0000     49.6097
           26          19      0.8333      0.1200   1416.4858    703.0000     49.6503
           26          20      0.8333      0.1267   1417.2003    703.0000     49.6910
           26          21      0.8333      0.1333   1417.9161    703.0000     49.7318
           26          22      0.8333      0.1400   1418.6331    703.0000     49.7728
           26          23      0.8333      0.1467   1419.3518    703.0000     49.8139
           26          24      0.8333      0.1533   1420.0722    703.0000     49.8552
           26          25      0.8333      0.1600   1420.7944    703.0000     49.8966
           26          26      0.8333      0.1667   1421.5187    703.0000     49.9383
           26          27      0.8333      0.1733   1422.2450    703.0000     49.9801
           26          28      0.8333      0.1800   1422.9734    703.0000     50.0221
           26          29      0.8333      0.1867   1423.7038    703.0000     50.0643
           26          30      0.8333      0.1933   1424.4362    703.0000     50.1066
           26          31      0.8333      0.2000   1425.1704    703.0000     50.1492
           27           1      0.8667      0.0000   1402.7754    703.0000     48.8817
           27           2      0.8667      0.0067   1403.4530    703.0000     48.9191
           27           3      0.8667      0.0133   1404.1309    703.0000     48.9566
           27           4      0.8667      0.0200   1404.8092    703.0000     48.9942
           27           5      0.8667      0.0267   1405.4880    703.0000     49.0319
           27           6      0.8667      0.0333   1406.1675    703.0000     49.0696
           27           7      0.8667      0.0400   1406.8478    703.0000     49.1075
           27           8      0.8667      0.0467   1407.5293    703.0000     49.1455
           27           9      0.8667      0.0533   1408.2122    703.0000     49.1836
           27          10      0.8667      0.0600   1408.8968    703.0000     49.2219
           27          11      0.8667      0.0667   1409.5835    703.0000     49.2604
           27          12      0.8667      0.0733   1410.2726    703.0000     49.2990
           27          13      0.8667      0.0800   1410.9645    703.0000     49.3379
           27          14      0.8667      0.0867   1411.6598    703.0000     49.3770
           27          15      0.8667      0.0933   1412.3587    703.0000     49.4164
           27          16      0.8667      0.1000   1413.0619    703.0000     49.4561
           27          17      0.8667      0.1067   1413.7697    703.0000     49.4961
           27          18      0.8667      0.1133   1414.4827    703.0000     49.5365
           27          19      0.8667      0.1200   1415.2013    703.0000     49.5773
           27          20      0.8667      0.1267   1415.9259    703.0000     49.6184
           27          21      0.8667      0.1333   1416.6571    703.0000     49.6600
           27          22      0.8667      0.1400   1417.3951    703.0000     49.7021
           27          23      0.8667      0.1467   1418.1404    703.0000     49.7446
           27          24      0.8667      0.1533   1418.8932    703.0000     49.7876
           27          25      0.8667      0.1600   1419.6536    703.0000     49.8312
           27          26      0.8667      0.1667   1420.4219    703.0000     49.8752
           27          27      0.8667      0.1733   1421.1980    703.0000     49.9198
           27          28      0.8667      0.1800   1421.9819    703.0000     49.9649
           27          29      0.8667      0.1867   1422.7732    703.0000     50.0105
           27          30      0.8667      0.1933   1423.5718    703.0000     50.0566
           27          31      0.8667      0.2000   1424.3770    703.0000     50.1032
           28           1      0.9000      0.0000   1401.8124    703.0000     48.8286
           28           2      0.9000      0.0067   1402.4232    703.0000     48.8622
           28           3      0.9000      0.0133   1403.0362    703.0000     48.8961
           28           4      0.9000      0.0200   1403.6518    703.0000     48.9301
           28           5      0.9000      0.0267   1404.2702    703.0000     48.9643
           28           6      0.9000      0.0333   1404.8917    703.0000     48.9988
           28           7      0.9000      0.0400   1405.5166    703.0000     49.0335
           28           8      0.9000      0.0467   1406.1456    703.0000     49.0684
           28           9      0.9000      0.0533   1406.7789    703.0000     49.1037
           28          10      0.9000      0.0600   1407.4173    703.0000     49.1393
           28          11      0.9000      0.0667   1408.0612    703.0000     49.1752
           28          12      0.9000      0.0733   1408.7113    703.0000     49.2115
           28          13      0.9000      0.0800   1409.3683    703.0000     49.2483
           28          14      0.9000      0.0867   1410.0330    703.0000     49.2856
           28          15      0.9000      0.0933   1410.7062    703.0000     49.3234
           28          16      0.9000      0.1000   1411.3887    703.0000     49.3618
           28          17      0.9000      0.1067   1412.0813    703.0000     49.4008
           28          18      0.9000      0.1133   1412.7850    703.0000     49.4405
           28          19      0.9000      0.1200   1413.5006    703.0000     49.4809
           28          20      0.9000      0.1267   1414.2291    703.0000     49.5221
           28          21      0.9000      0.1333   1414.9713    703.0000     49.5642
           28          22      0.9000      0.1400   1415.7280    703.0000     49.6072
           28          23      0.9000      0.1467   1416.5001    703.0000     49.6511
           28          24      0.9000      0.1533   1417.2881    703.0000     49.6960
           28          25      0.9000      0.1600   1418.0926    703.0000     49.7419
           28          26      0.9000      0.1667   1418.9141    703.0000     49.7888
           28          27      0.9000      0.1733   1419.7526    703.0000     49.8369
           28          28      0.9000      0.1800   1420.6081    703.0000     49.8859
           28          29      0.9000      0.1867   1421.4804    703.0000     49.9361
           28          30      0.9000      0.1933   1422.3687    703.0000     49.9872
           28          31      0.9000      0.2000   1423.2721    703.0000     50.0393
           29           1      0.9333      0.0000   1400.6342    703.0000     48.7638
           29           2      0.9333      0.0067   1401.1628    703.0000     48.7928
           29           3      0.9333      0.0133   1401.6952    703.0000     48.8221
           29           4      0.9333      0.0200   1402.2317    703.0000     48.8517
           29           5      0.9333      0.0267   1402.7728    703.0000     48.8815
           29           6      0.9333      0.0333   1403.3189    703.0000     48.9117
           29           7      0.9333      0.0400   1403.8705    703.0000     48.9422
           29           8      0.9333      0.0467   1404.4283    703.0000     48.9731
           29           9      0.9333      0.0533   1404.9931    703.0000     49.0044
           29          10      0.9333      0.0600   1405.5655    703.0000     49.0362
           29          11      0.9333      0.0667   1406.1465    703.0000     49.0685
           29          12      0.9333      0.0733   1406.7371    703.0000     49.1013
           29          13      0.9333      0.0800   1407.3382    703.0000     49.1348
           29          14      0.9333      0.0867   1407.9512    703.0000     49.1691
           29          15      0.9333      0.0933   1408.5772    703.0000     49.2040
           29          16      0.9333      0.1000   1409.2176    703.0000     49.2399
           29          17      0.9333      0.1067   1409.8740    703.0000     49.2767
           29          18      0.9333      0.1133   1410.5479    703.0000     49.3145
           29          19      0.9333      0.1200   1411.2410    703.0000     49.3535
           29          20      0.9333      0.1267   1411.9550    703.0000     49.3937
           29          21      0.9333      0.1333   1412.6918    703.0000     49.4352
           29          22      0.9333      0.1400   1413.4532    703.0000     49.4782
           29          23      0.9333      0.1467   1414.2412    703.0000     49.5228
           29          24      0.9333      0.1533   1415.0576    703.0000     49.5691
           29          25      0.9333      0.1600   1415.9040    703.0000     49.6172
           29          26      0.9333      0.1667   1416.7820    703.0000     49.6671
           29          27      0.9333      0.1733   1417.6929    703.0000     49.7191
           29          28      0.9333      0.1800   1418.6374    703.0000     49.7730
           29          29      0.9333      0.1867   1419.6157    703.0000     49.8290
           29          30      0.9333      0.1933   1420.6275    703.0000     49.8870
           29          31      0.9333      0.2000   1421.6712    703.0000     49.9470
           30           1      0.9667      0.0000   1399.2289    703.0000     48.6867
           30           2      0.9667      0.0067   1399.6589    703.0000     48.7102
           30           3      0.9667      0.0133   1400.0932    703.0000     48.7341
           30           4      0.9667      0.0200   1400.5323    703.0000     48.7582
           30           5      0.9667      0.0267   1400.9765    703.0000     48.7826
           30           6      0.9667      0.0333   1401.4265    703.0000     48.8073
           30           7      0.9667      0.0400   1401.8828    703.0000     48.8324
           30           8      0.9667      0.0467   1402.3462    703.0000     48.8580
           30           9      0.9667      0.0533   1402.8175    703.0000     48.8840
           30          10      0.9667      0.0600   1403.2977    703.0000     48.9105
           30          11      0.9667      0.0667   1403.7878    703.0000     48.9376
           30          12      0.9667      0.0733   1404.2890    703.0000     48.9654
           30          13      0.9667      0.0800   1404.8027    703.0000     48.9938
           30          14      0.9667      0.0867   1405.3304    703.0000     49.0231
           30          15      0.9667      0.0933   1405.8738    703.0000     49.0533
           30          16      0.9667      0.1000   1406.4349    703.0000     49.0845
           30          17      0.9667      0.1067   1407.0158    703.0000     49.1169
           30          18      0.9667      0.1133   1407.6191    703.0000     49.1505
           30          19      0.9667      0.1200   1408.2473    703.0000     49.1856
           30          20      0.9667      0.1267   1408.9036    703.0000     49.2223
           30          21      0.9667      0.1333   1409.5913    703.0000     49.2608
           30          22      0.9667      0.1400   1410.3143    703.0000     49.3014
           30          23      0.9667      0.1467   1411.0767    703.0000     49.3442
           30          24      0.9667      0.1533   1411.8832    703.0000     49.3896
           30          25      0.9667      0.1600   1412.7386    703.0000     49.4379
           30          26      0.9667      0.1667   1413.6484    703.0000     49.4893
           30          27      0.9667      0.1733   1414.6179    703.0000     49.5442
           30          28      0.9667      0.1800   1415.6526    703.0000     49.6029
           30          29      0.9667      0.1867   1416.7573    703.0000     49.6657
           30          30      0.9667      0.1933   1417.9355    703.0000     49.7329
           30          31      0.9667      0.2000   1419.1884    703.0000     49.8045
           31           1      1.0000      0.0000   1397.6115    703.0000     48.5983
           31           2      1.0000      0.0067   1397.9273    703.0000     48.6155
           31           3      1.0000      0.0133   1398.2467    703.0000     48.6330
           31           4      1.0000      0.0200   1398.5700    703.0000     48.6506
           31           5      1.0000      0.0267   1398.8976    703.0000     48.6686
           31           6      1.0000      0.0333   1399.2299    703.0000     48.6867
           31           7      1.0000      0.0400   1399.5675    703.0000     48.7052
           31           8      1.0000      0.0467   1399.9109    703.0000     48.7241
           31           9      1.0000      0.0533   1400.2609    703.0000     48.7433
           31          10      1.0000      0.0600   1400.6182    703.0000     48.7629
           31          11      1.0000      0.0667   1400.9839    703.0000     48.7830
           31          12      1.0000      0.0733   1401.3589    703.0000     48.8036
           31          13      1.0000      0.0800   1401.7445    703.0000     48.8248
           31          14      1.0000      0.0867   1402.1421    703.0000     48.8467
           31          15      1.0000      0.0933   1402.5533    703.0000     48.8694
           31          16      1.0000      0.1000   1402.9799    703.0000     48.8930
           31          17      1.0000      0.1067   1403.4242    703.0000     48.9175
           31          18      1.0000      0.1133   1403.8886    703.0000     48.9432
           31          19      1.0000      0.1200   1404.3762    703.0000     48.9702
           31          20      1.0000      0.1267   1404.8905    703.0000     48.9987
           31          21      1.0000      0.1333   1405.4357    703.0000     49.0290
           31          22      1.0000      0.1400   1406.0171    703.0000     49.0613
           31          23      1.0000      0.1467   1406.6409    703.0000     49.0960
           31          24      1.0000      0.1533   1407.3151    703.0000     49.1336
           31          25      1.0000      0.1600   1408.0496    703.0000     49.1746
           31          26      1.0000      0.1667   1408.8568    703.0000     49.2197
           31          27      1.0000      0.1733   1409.7532    703.0000     49.2699
           31          28      1.0000      0.1800   1410.7599    703.0000     49.3264
           31          29      1.0000      0.1867   1411.9052    703.0000     49.3909
           31          30      1.0000      0.1933   1413.2268    703.0000     49.4654
           31          31      1.0000      0.2000   1414.7760    703.0000     49.5531
