 ====================================================================================
               Transient state solution for a 2D rectangular plate
                    for applications in steel reheating
                 e.g. Reheating furnaces for rolling processing
 ====================================================================================
 Author: Dickson Alves de Souza

 Based on lectures by professor Roberto Parreiras Tavares

 and book Numerical Heat Transfer and Fluid Flow
 by Suhas V. Patankar (1980)

 Federal University of Minas Gerais (UFMG)
 October 26th, 2017
 ====================================================================================
                              Input parameters:

 Lenght in X direction (meters):           1.0000
 Lenght in Y direction (meters):           0.2000
 Nodes in X direction:                         31
 Nodes in Y direction:                         31
 ====================================================================================

                       STAGE                1/  5
                       START Time:         0.0000
                       END Time:        1140.0000
                       Iterations:             1930

 ====================================================================================
 Temperature of fluid at left face (T left):             1223.1500
 Temperature of fluid at right face (T right):           1223.1500
 Temperature of fluid at bottom face (T bottom):         1223.1500
 Temperature of fluid at top face (T top):               1223.1500
 ------------------------------------------------------------------------------------
 Heat transfer coefficient at left face (H left):          50.0000
 Heat transfer coefficient at right face (H right):        50.0000
 Heat transfer coefficient at bottom face (H bottom):       8.0000
 Heat transfer coefficient at top face (H top):           150.0000
 ====================================================================================


 ====================================================================================

                       STAGE                2/  5
                       START Time:      1140.0000
                       END Time:        3060.0000
                       Iterations:             1930

 ====================================================================================
 Temperature of fluid at left face (T left):             1423.1500
 Temperature of fluid at right face (T right):           1423.1500
 Temperature of fluid at bottom face (T bottom):         1423.1500
 Temperature of fluid at top face (T top):               1423.1500
 ------------------------------------------------------------------------------------
 Heat transfer coefficient at left face (H left):          50.0000
 Heat transfer coefficient at right face (H right):        50.0000
 Heat transfer coefficient at bottom face (H bottom):       8.0000
 Heat transfer coefficient at top face (H top):           150.0000
 ====================================================================================


 ====================================================================================

                       STAGE                3/  5
                       START Time:      3060.0000
                       END Time:        4980.0000
                       Iterations:             1930

 ====================================================================================
 Temperature of fluid at left face (T left):             1513.1500
 Temperature of fluid at right face (T right):           1513.1500
 Temperature of fluid at bottom face (T bottom):         1513.1500
 Temperature of fluid at top face (T top):               1513.1500
 ------------------------------------------------------------------------------------
 Heat transfer coefficient at left face (H left):          50.0000
 Heat transfer coefficient at right face (H right):        50.0000
 Heat transfer coefficient at bottom face (H bottom):       8.0000
 Heat transfer coefficient at top face (H top):           150.0000
 ====================================================================================


 ====================================================================================

                       STAGE                4/  5
                       START Time:      4980.0000
                       END Time:        8400.0000
                       Iterations:             1930

 ====================================================================================
 Temperature of fluid at left face (T left):             1503.1500
 Temperature of fluid at right face (T right):           1503.1500
 Temperature of fluid at bottom face (T bottom):         1503.1500
 Temperature of fluid at top face (T top):               1523.1500
 ------------------------------------------------------------------------------------
 Heat transfer coefficient at left face (H left):          50.0000
 Heat transfer coefficient at right face (H right):        50.0000
 Heat transfer coefficient at bottom face (H bottom):       8.0000
 Heat transfer coefficient at top face (H top):           150.0000
 ====================================================================================


 ====================================================================================

                       STAGE                5/  5
                       START Time:      8400.0000
                       END Time:       18400.0000
                       Iterations:             1930

 ====================================================================================
 Temperature of fluid at left face (T left):             1393.1500
 Temperature of fluid at right face (T right):           1393.1500
 Temperature of fluid at bottom face (T bottom):         1393.1500
 Temperature of fluid at top face (T top):               1433.1500
 ------------------------------------------------------------------------------------
 Heat transfer coefficient at left face (H left):          50.0000
 Heat transfer coefficient at right face (H right):        50.0000
 Heat transfer coefficient at bottom face (H bottom):       8.0000
 Heat transfer coefficient at top face (H top):           150.0000
 ====================================================================================


 SOLUTION of LINEAR SYSTEM: TDMA (tri-diagonal matrix algorithm)
      ADI approach employed in solution.
 Tolerance:       0.0010

 ====================================================================================
                    Calculation Results
 Current time:    12600.000000000000       seconds
 Maximum Temperature :    1428.0092309365571
 Minimum Temperature :    1397.8641628294124
 Average(algebraic, non-weigthed) Temperature :    1415.0561767515892
 ====================================================================================
            I           J        X(m)        Y(m)        T(K)  Cp(J/kg.K) K(W/sq-m.K)
 ====================================================================================
            1           1      0.0000      0.0000   1397.8642    703.0000     48.6121
            1           2      0.0000      0.0067   1398.1973    703.0000     48.6303
            1           3      0.0000      0.0133   1398.5329    703.0000     48.6486
            1           4      0.0000      0.0200   1398.8714    703.0000     48.6671
            1           5      0.0000      0.0267   1399.2130    703.0000     48.6858
            1           6      0.0000      0.0333   1399.5581    703.0000     48.7047
            1           7      0.0000      0.0400   1399.9072    703.0000     48.7239
            1           8      0.0000      0.0467   1400.2608    703.0000     48.7433
            1           9      0.0000      0.0533   1400.6197    703.0000     48.7630
            1          10      0.0000      0.0600   1400.9846    703.0000     48.7830
            1          11      0.0000      0.0667   1401.3565    703.0000     48.8035
            1          12      0.0000      0.0733   1401.7362    703.0000     48.8244
            1          13      0.0000      0.0800   1402.1251    703.0000     48.8458
            1          14      0.0000      0.0867   1402.5246    703.0000     48.8678
            1          15      0.0000      0.0933   1402.9362    703.0000     48.8905
            1          16      0.0000      0.1000   1403.3618    703.0000     48.9141
            1          17      0.0000      0.1067   1403.8036    703.0000     48.9385
            1          18      0.0000      0.1133   1404.2641    703.0000     48.9640
            1          19      0.0000      0.1200   1404.7463    703.0000     48.9907
            1          20      0.0000      0.1267   1405.2539    703.0000     49.0189
            1          21      0.0000      0.1333   1405.7911    703.0000     49.0487
            1          22      0.0000      0.1400   1406.3631    703.0000     49.0805
            1          23      0.0000      0.1467   1406.9763    703.0000     49.1147
            1          24      0.0000      0.1533   1407.6385    703.0000     49.1516
            1          25      0.0000      0.1600   1408.3598    703.0000     49.1919
            1          26      0.0000      0.1667   1409.1528    703.0000     49.2363
            1          27      0.0000      0.1733   1410.0337    703.0000     49.2856
            1          28      0.0000      0.1800   1411.0240    703.0000     49.3413
            1          29      0.0000      0.1867   1412.1520    703.0000     49.4048
            1          30      0.0000      0.1933   1413.4553    703.0000     49.4784
            1          31      0.0000      0.2000   1414.9854    703.0000     49.5650
            2           1      0.0333      0.0000   1399.5741    703.0000     48.7056
            2           2      0.0333      0.0067   1400.0277    703.0000     48.7305
            2           3      0.0333      0.0133   1400.4842    703.0000     48.7555
            2           4      0.0333      0.0200   1400.9439    703.0000     48.7808
            2           5      0.0333      0.0267   1401.4073    703.0000     48.8063
            2           6      0.0333      0.0333   1401.8747    703.0000     48.8320
            2           7      0.0333      0.0400   1402.3468    703.0000     48.8580
            2           8      0.0333      0.0467   1402.8241    703.0000     48.8844
            2           9      0.0333      0.0533   1403.3076    703.0000     48.9111
            2          10      0.0333      0.0600   1403.7980    703.0000     48.9382
            2          11      0.0333      0.0667   1404.2964    703.0000     48.9658
            2          12      0.0333      0.0733   1404.8041    703.0000     48.9939
            2          13      0.0333      0.0800   1405.3222    703.0000     49.0227
            2          14      0.0333      0.0867   1405.8524    703.0000     49.0521
            2          15      0.0333      0.0933   1406.3964    703.0000     49.0824
            2          16      0.0333      0.1000   1406.9561    703.0000     49.1135
            2          17      0.0333      0.1067   1407.5336    703.0000     49.1457
            2          18      0.0333      0.1133   1408.1315    703.0000     49.1791
            2          19      0.0333      0.1200   1408.7524    703.0000     49.2138
            2          20      0.0333      0.1267   1409.3995    703.0000     49.2501
            2          21      0.0333      0.1333   1410.0762    703.0000     49.2880
            2          22      0.0333      0.1400   1410.7863    703.0000     49.3279
            2          23      0.0333      0.1467   1411.5342    703.0000     49.3700
            2          24      0.0333      0.1533   1412.3243    703.0000     49.4145
            2          25      0.0333      0.1600   1413.1618    703.0000     49.4618
            2          26      0.0333      0.1667   1414.0521    703.0000     49.5121
            2          27      0.0333      0.1733   1415.0006    703.0000     49.5659
            2          28      0.0333      0.1800   1416.0129    703.0000     49.6234
            2          29      0.0333      0.1867   1417.0939    703.0000     49.6849
            2          30      0.0333      0.1933   1418.2473    703.0000     49.7507
            2          31      0.0333      0.2000   1419.4741    703.0000     49.8209
            3           1      0.0667      0.0000   1401.0653    703.0000     48.7874
            3           2      0.0667      0.0067   1401.6234    703.0000     48.8182
            3           3      0.0667      0.0133   1402.1835    703.0000     48.8490
            3           4      0.0667      0.0200   1402.7459    703.0000     48.8800
            3           5      0.0667      0.0267   1403.3108    703.0000     48.9112
            3           6      0.0667      0.0333   1403.8786    703.0000     48.9426
            3           7      0.0667      0.0400   1404.4499    703.0000     48.9743
            3           8      0.0667      0.0467   1405.0251    703.0000     49.0062
            3           9      0.0667      0.0533   1405.6049    703.0000     49.0384
            3          10      0.0667      0.0600   1406.1901    703.0000     49.0709
            3          11      0.0667      0.0667   1406.7815    703.0000     49.1038
            3          12      0.0667      0.0733   1407.3801    703.0000     49.1372
            3          13      0.0667      0.0800   1407.9868    703.0000     49.1710
            3          14      0.0667      0.0867   1408.6028    703.0000     49.2055
            3          15      0.0667      0.0933   1409.2294    703.0000     49.2406
            3          16      0.0667      0.1000   1409.8680    703.0000     49.2763
            3          17      0.0667      0.1067   1410.5201    703.0000     49.3129
            3          18      0.0667      0.1133   1411.1873    703.0000     49.3505
            3          19      0.0667      0.1200   1411.8712    703.0000     49.3890
            3          20      0.0667      0.1267   1412.5738    703.0000     49.4286
            3          21      0.0667      0.1333   1413.2968    703.0000     49.4694
            3          22      0.0667      0.1400   1414.0422    703.0000     49.5116
            3          23      0.0667      0.1467   1414.8120    703.0000     49.5552
            3          24      0.0667      0.1533   1415.6079    703.0000     49.6004
            3          25      0.0667      0.1600   1416.4320    703.0000     49.6472
            3          26      0.0667      0.1667   1417.2857    703.0000     49.6958
            3          27      0.0667      0.1733   1418.1704    703.0000     49.7463
            3          28      0.0667      0.1800   1419.0870    703.0000     49.7987
            3          29      0.0667      0.1867   1420.0359    703.0000     49.8531
            3          30      0.0667      0.1933   1421.0166    703.0000     49.9094
            3          31      0.0667      0.2000   1422.0280    703.0000     49.9676
            4           1      0.1000      0.0000   1402.3225    703.0000     48.8567
            4           2      0.1000      0.0067   1402.9682    703.0000     48.8923
            4           3      0.1000      0.0133   1403.6140    703.0000     48.9280
            4           4      0.1000      0.0200   1404.2601    703.0000     48.9638
            4           5      0.1000      0.0267   1404.9067    703.0000     48.9996
            4           6      0.1000      0.0333   1405.5539    703.0000     49.0355
            4           7      0.1000      0.0400   1406.2020    703.0000     49.0716
            4           8      0.1000      0.0467   1406.8515    703.0000     49.1077
            4           9      0.1000      0.0533   1407.5027    703.0000     49.1440
            4          10      0.1000      0.0600   1408.1561    703.0000     49.1805
            4          11      0.1000      0.0667   1408.8122    703.0000     49.2172
            4          12      0.1000      0.0733   1409.4718    703.0000     49.2541
            4          13      0.1000      0.0800   1410.1353    703.0000     49.2913
            4          14      0.1000      0.0867   1410.8036    703.0000     49.3289
            4          15      0.1000      0.0933   1411.4775    703.0000     49.3668
            4          16      0.1000      0.1000   1412.1578    703.0000     49.4051
            4          17      0.1000      0.1067   1412.8453    703.0000     49.4439
            4          18      0.1000      0.1133   1413.5411    703.0000     49.4832
            4          19      0.1000      0.1200   1414.2459    703.0000     49.5231
            4          20      0.1000      0.1267   1414.9608    703.0000     49.5636
            4          21      0.1000      0.1333   1415.6867    703.0000     49.6048
            4          22      0.1000      0.1400   1416.4244    703.0000     49.6468
            4          23      0.1000      0.1467   1417.1750    703.0000     49.6895
            4          24      0.1000      0.1533   1417.9389    703.0000     49.7331
            4          25      0.1000      0.1600   1418.7171    703.0000     49.7776
            4          26      0.1000      0.1667   1419.5098    703.0000     49.8229
            4          27      0.1000      0.1733   1420.3174    703.0000     49.8692
            4          28      0.1000      0.1800   1421.1400    703.0000     49.9165
            4          29      0.1000      0.1867   1421.9774    703.0000     49.9647
            4          30      0.1000      0.1933   1422.8290    703.0000     50.0138
            4          31      0.1000      0.2000   1423.6942    703.0000     50.0637
            5           1      0.1333      0.0000   1403.3555    703.0000     48.9137
            5           2      0.1333      0.0067   1404.0728    703.0000     48.9534
            5           3      0.1333      0.0133   1404.7880    703.0000     48.9930
            5           4      0.1333      0.0200   1405.5009    703.0000     49.0326
            5           5      0.1333      0.0267   1406.2117    703.0000     49.0721
            5           6      0.1333      0.0333   1406.9204    703.0000     49.1116
            5           7      0.1333      0.0400   1407.6270    703.0000     49.1510
            5           8      0.1333      0.0467   1408.3318    703.0000     49.1903
            5           9      0.1333      0.0533   1409.0350    703.0000     49.2297
            5          10      0.1333      0.0600   1409.7367    703.0000     49.2690
            5          11      0.1333      0.0667   1410.4373    703.0000     49.3083
            5          12      0.1333      0.0733   1411.1371    703.0000     49.3476
            5          13      0.1333      0.0800   1411.8364    703.0000     49.3870
            5          14      0.1333      0.0867   1412.5357    703.0000     49.4264
            5          15      0.1333      0.0933   1413.2355    703.0000     49.4659
            5          16      0.1333      0.1000   1413.9361    703.0000     49.5056
            5          17      0.1333      0.1067   1414.6381    703.0000     49.5453
            5          18      0.1333      0.1133   1415.3420    703.0000     49.5853
            5          19      0.1333      0.1200   1416.0484    703.0000     49.6254
            5          20      0.1333      0.1267   1416.7576    703.0000     49.6657
            5          21      0.1333      0.1333   1417.4702    703.0000     49.7064
            5          22      0.1333      0.1400   1418.1868    703.0000     49.7473
            5          23      0.1333      0.1467   1418.9076    703.0000     49.7885
            5          24      0.1333      0.1533   1419.6330    703.0000     49.8300
            5          25      0.1333      0.1600   1420.3635    703.0000     49.8719
            5          26      0.1333      0.1667   1421.0992    703.0000     49.9141
            5          27      0.1333      0.1733   1421.8402    703.0000     49.9568
            5          28      0.1333      0.1800   1422.5867    703.0000     49.9998
            5          29      0.1333      0.1867   1423.3384    703.0000     50.0432
            5          30      0.1333      0.1933   1424.0953    703.0000     50.0869
            5          31      0.1333      0.2000   1424.8570    703.0000     50.1310
            6           1      0.1667      0.0000   1404.1886    703.0000     48.9598
            6           2      0.1667      0.0067   1404.9633    703.0000     49.0027
            6           3      0.1667      0.0133   1405.7336    703.0000     49.0455
            6           4      0.1667      0.0200   1406.4993    703.0000     49.0881
            6           5      0.1667      0.0267   1407.2601    703.0000     49.1305
            6           6      0.1667      0.0333   1408.0160    703.0000     49.1727
            6           7      0.1667      0.0400   1408.7670    703.0000     49.2147
            6           8      0.1667      0.0467   1409.5130    703.0000     49.2564
            6           9      0.1667      0.0533   1410.2539    703.0000     49.2980
            6          10      0.1667      0.0600   1410.9900    703.0000     49.3394
            6          11      0.1667      0.0667   1411.7213    703.0000     49.3805
            6          12      0.1667      0.0733   1412.4479    703.0000     49.4215
            6          13      0.1667      0.0800   1413.1699    703.0000     49.4622
            6          14      0.1667      0.0867   1413.8877    703.0000     49.5028
            6          15      0.1667      0.0933   1414.6014    703.0000     49.5432
            6          16      0.1667      0.1000   1415.3113    703.0000     49.5835
            6          17      0.1667      0.1067   1416.0176    703.0000     49.6236
            6          18      0.1667      0.1133   1416.7207    703.0000     49.6636
            6          19      0.1667      0.1200   1417.4209    703.0000     49.7035
            6          20      0.1667      0.1267   1418.1185    703.0000     49.7434
            6          21      0.1667      0.1333   1418.8138    703.0000     49.7831
            6          22      0.1667      0.1400   1419.5071    703.0000     49.8228
            6          23      0.1667      0.1467   1420.1988    703.0000     49.8624
            6          24      0.1667      0.1533   1420.8891    703.0000     49.9021
            6          25      0.1667      0.1600   1421.5782    703.0000     49.9417
            6          26      0.1667      0.1667   1422.2665    703.0000     49.9813
            6          27      0.1667      0.1733   1422.9542    703.0000     50.0210
            6          28      0.1667      0.1800   1423.6413    703.0000     50.0607
            6          29      0.1667      0.1867   1424.3280    703.0000     50.1004
            6          30      0.1667      0.1933   1425.0145    703.0000     50.1401
            6          31      0.1667      0.2000   1425.7006    703.0000     50.1799
            7           1      0.2000      0.0000   1404.8511    703.0000     48.9965
            7           2      0.2000      0.0067   1405.6714    703.0000     49.0421
            7           3      0.2000      0.0133   1406.4852    703.0000     49.0873
            7           4      0.2000      0.0200   1407.2920    703.0000     49.1323
            7           5      0.2000      0.0267   1408.0916    703.0000     49.1769
            7           6      0.2000      0.0333   1408.8837    703.0000     49.2212
            7           7      0.2000      0.0400   1409.6683    703.0000     49.2651
            7           8      0.2000      0.0467   1410.4450    703.0000     49.3087
            7           9      0.2000      0.0533   1411.2138    703.0000     49.3519
            7          10      0.2000      0.0600   1411.9747    703.0000     49.3948
            7          11      0.2000      0.0667   1412.7275    703.0000     49.4372
            7          12      0.2000      0.0733   1413.4723    703.0000     49.4793
            7          13      0.2000      0.0800   1414.2092    703.0000     49.5210
            7          14      0.2000      0.0867   1414.9382    703.0000     49.5623
            7          15      0.2000      0.0933   1415.6594    703.0000     49.6033
            7          16      0.2000      0.1000   1416.3730    703.0000     49.6439
            7          17      0.2000      0.1067   1417.0791    703.0000     49.6841
            7          18      0.2000      0.1133   1417.7780    703.0000     49.7239
            7          19      0.2000      0.1200   1418.4699    703.0000     49.7634
            7          20      0.2000      0.1267   1419.1550    703.0000     49.8026
            7          21      0.2000      0.1333   1419.8337    703.0000     49.8415
            7          22      0.2000      0.1400   1420.5060    703.0000     49.8801
            7          23      0.2000      0.1467   1421.1725    703.0000     49.9184
            7          24      0.2000      0.1533   1421.8333    703.0000     49.9564
            7          25      0.2000      0.1600   1422.4888    703.0000     49.9941
            7          26      0.2000      0.1667   1423.1393    703.0000     50.0317
            7          27      0.2000      0.1733   1423.7851    703.0000     50.0690
            7          28      0.2000      0.1800   1424.4265    703.0000     50.1061
            7          29      0.2000      0.1867   1425.0637    703.0000     50.1430
            7          30      0.2000      0.1933   1425.6971    703.0000     50.1797
            7          31      0.2000      0.2000   1426.3270    703.0000     50.2163
            8           1      0.2333      0.0000   1405.3723    703.0000     49.0254
            8           2      0.2333      0.0067   1406.2284    703.0000     49.0730
            8           3      0.2333      0.0133   1407.0761    703.0000     49.1202
            8           4      0.2333      0.0200   1407.9149    703.0000     49.1670
            8           5      0.2333      0.0267   1408.7444    703.0000     49.2134
            8           6      0.2333      0.0333   1409.5643    703.0000     49.2593
            8           7      0.2333      0.0400   1410.3743    703.0000     49.3048
            8           8      0.2333      0.0467   1411.1742    703.0000     49.3497
            8           9      0.2333      0.0533   1411.9637    703.0000     49.3942
            8          10      0.2333      0.0600   1412.7427    703.0000     49.4381
            8          11      0.2333      0.0667   1413.5110    703.0000     49.4815
            8          12      0.2333      0.0733   1414.2686    703.0000     49.5244
            8          13      0.2333      0.0800   1415.0154    703.0000     49.5667
            8          14      0.2333      0.0867   1415.7514    703.0000     49.6085
            8          15      0.2333      0.0933   1416.4768    703.0000     49.6498
            8          16      0.2333      0.1000   1417.1915    703.0000     49.6905
            8          17      0.2333      0.1067   1417.8957    703.0000     49.7306
            8          18      0.2333      0.1133   1418.5896    703.0000     49.7703
            8          19      0.2333      0.1200   1419.2733    703.0000     49.8094
            8          20      0.2333      0.1267   1419.9472    703.0000     49.8480
            8          21      0.2333      0.1333   1420.6113    703.0000     49.8861
            8          22      0.2333      0.1400   1421.2662    703.0000     49.9237
            8          23      0.2333      0.1467   1421.9120    703.0000     49.9609
            8          24      0.2333      0.1533   1422.5491    703.0000     49.9976
            8          25      0.2333      0.1600   1423.1779    703.0000     50.0339
            8          26      0.2333      0.1667   1423.7987    703.0000     50.0698
            8          27      0.2333      0.1733   1424.4120    703.0000     50.1052
            8          28      0.2333      0.1800   1425.0181    703.0000     50.1404
            8          29      0.2333      0.1867   1425.6176    703.0000     50.1751
            8          30      0.2333      0.1933   1426.2108    703.0000     50.2096
            8          31      0.2333      0.2000   1426.7982    703.0000     50.2437
            9           1      0.2667      0.0000   1405.7782    703.0000     49.0480
            9           2      0.2667      0.0067   1406.6622    703.0000     49.0972
            9           3      0.2667      0.0133   1407.5362    703.0000     49.1459
            9           4      0.2667      0.0200   1408.3997    703.0000     49.1941
            9           5      0.2667      0.0267   1409.2522    703.0000     49.2418
            9           6      0.2667      0.0333   1410.0934    703.0000     49.2890
            9           7      0.2667      0.0400   1410.9228    703.0000     49.3356
            9           8      0.2667      0.0467   1411.7401    703.0000     49.3816
            9           9      0.2667      0.0533   1412.5450    703.0000     49.4269
            9          10      0.2667      0.0600   1413.3374    703.0000     49.4717
            9          11      0.2667      0.0667   1414.1170    703.0000     49.5158
            9          12      0.2667      0.0733   1414.8837    703.0000     49.5592
            9          13      0.2667      0.0800   1415.6374    703.0000     49.6020
            9          14      0.2667      0.0867   1416.3781    703.0000     49.6441
            9          15      0.2667      0.0933   1417.1057    703.0000     49.6856
            9          16      0.2667      0.1000   1417.8204    703.0000     49.7263
            9          17      0.2667      0.1067   1418.5223    703.0000     49.7664
            9          18      0.2667      0.1133   1419.2114    703.0000     49.8059
            9          19      0.2667      0.1200   1419.8881    703.0000     49.8446
            9          20      0.2667      0.1267   1420.5524    703.0000     49.8827
            9          21      0.2667      0.1333   1421.2048    703.0000     49.9202
            9          22      0.2667      0.1400   1421.8454    703.0000     49.9571
            9          23      0.2667      0.1467   1422.4748    703.0000     49.9933
            9          24      0.2667      0.1533   1423.0932    703.0000     50.0290
            9          25      0.2667      0.1600   1423.7011    703.0000     50.0641
            9          26      0.2667      0.1667   1424.2989    703.0000     50.0987
            9          27      0.2667      0.1733   1424.8872    703.0000     50.1328
            9          28      0.2667      0.1800   1425.4663    703.0000     50.1663
            9          29      0.2667      0.1867   1426.0369    703.0000     50.1995
            9          30      0.2667      0.1933   1426.5996    703.0000     50.2322
            9          31      0.2667      0.2000   1427.1548    703.0000     50.2645
           10           1      0.3000      0.0000   1406.0911    703.0000     49.0654
           10           2      0.3000      0.0067   1406.9964    703.0000     49.1158
           10           3      0.3000      0.0133   1407.8906    703.0000     49.1657
           10           4      0.3000      0.0200   1408.7730    703.0000     49.2150
           10           5      0.3000      0.0267   1409.6431    703.0000     49.2637
           10           6      0.3000      0.0333   1410.5005    703.0000     49.3118
           10           7      0.3000      0.0400   1411.3445    703.0000     49.3593
           10           8      0.3000      0.0467   1412.1750    703.0000     49.4061
           10           9      0.3000      0.0533   1412.9916    703.0000     49.4522
           10          10      0.3000      0.0600   1413.7939    703.0000     49.4975
           10          11      0.3000      0.0667   1414.5818    703.0000     49.5421
           10          12      0.3000      0.0733   1415.3551    703.0000     49.5860
           10          13      0.3000      0.0800   1416.1137    703.0000     49.6291
           10          14      0.3000      0.0867   1416.8575    703.0000     49.6714
           10          15      0.3000      0.0933   1417.5865    703.0000     49.7130
           10          16      0.3000      0.1000   1418.3008    703.0000     49.7538
           10          17      0.3000      0.1067   1419.0004    703.0000     49.7938
           10          18      0.3000      0.1133   1419.6855    703.0000     49.8330
           10          19      0.3000      0.1200   1420.3562    703.0000     49.8715
           10          20      0.3000      0.1267   1421.0130    703.0000     49.9092
           10          21      0.3000      0.1333   1421.6559    703.0000     49.9462
           10          22      0.3000      0.1400   1422.2855    703.0000     49.9824
           10          23      0.3000      0.1467   1422.9020    703.0000     50.0180
           10          24      0.3000      0.1533   1423.5059    703.0000     50.0528
           10          25      0.3000      0.1600   1424.0977    703.0000     50.0871
           10          26      0.3000      0.1667   1424.6778    703.0000     50.1206
           10          27      0.3000      0.1733   1425.2469    703.0000     50.1536
           10          28      0.3000      0.1800   1425.8055    703.0000     50.1860
           10          29      0.3000      0.1867   1426.3542    703.0000     50.2179
           10          30      0.3000      0.1933   1426.8937    703.0000     50.2493
           10          31      0.3000      0.2000   1427.4246    703.0000     50.2802
           11           1      0.3333      0.0000   1406.3287    703.0000     49.0786
           11           2      0.3333      0.0067   1407.2504    703.0000     49.1299
           11           3      0.3333      0.0133   1408.1599    703.0000     49.1807
           11           4      0.3333      0.0200   1409.0566    703.0000     49.2309
           11           5      0.3333      0.0267   1409.9400    703.0000     49.2804
           11           6      0.3333      0.0333   1410.8095    703.0000     49.3292
           11           7      0.3333      0.0400   1411.6646    703.0000     49.3773
           11           8      0.3333      0.0467   1412.5050    703.0000     49.4247
           11           9      0.3333      0.0533   1413.3302    703.0000     49.4713
           11          10      0.3333      0.0600   1414.1399    703.0000     49.5171
           11          11      0.3333      0.0667   1414.9339    703.0000     49.5621
           11          12      0.3333      0.0733   1415.7120    703.0000     49.6063
           11          13      0.3333      0.0800   1416.4741    703.0000     49.6496
           11          14      0.3333      0.0867   1417.2201    703.0000     49.6921
           11          15      0.3333      0.0933   1417.9499    703.0000     49.7337
           11          16      0.3333      0.1000   1418.6636    703.0000     49.7745
           11          17      0.3333      0.1067   1419.3613    703.0000     49.8144
           11          18      0.3333      0.1133   1420.0431    703.0000     49.8535
           11          19      0.3333      0.1200   1420.7093    703.0000     49.8917
           11          20      0.3333      0.1267   1421.3601    703.0000     49.9291
           11          21      0.3333      0.1333   1421.9958    703.0000     49.9657
           11          22      0.3333      0.1400   1422.6168    703.0000     50.0015
           11          23      0.3333      0.1467   1423.2235    703.0000     50.0365
           11          24      0.3333      0.1533   1423.8163    703.0000     50.0708
           11          25      0.3333      0.1600   1424.3959    703.0000     50.1043
           11          26      0.3333      0.1667   1424.9626    703.0000     50.1371
           11          27      0.3333      0.1733   1425.5172    703.0000     50.1693
           11          28      0.3333      0.1800   1426.0603    703.0000     50.2008
           11          29      0.3333      0.1867   1426.5924    703.0000     50.2317
           11          30      0.3333      0.1933   1427.1145    703.0000     50.2621
           11          31      0.3333      0.2000   1427.6271    703.0000     50.2920
           12           1      0.3667      0.0000   1406.5056    703.0000     49.0884
           12           2      0.3667      0.0067   1407.4393    703.0000     49.1405
           12           3      0.3667      0.0133   1408.3602    703.0000     49.1919
           12           4      0.3667      0.0200   1409.2675    703.0000     49.2427
           12           5      0.3667      0.0267   1410.1607    703.0000     49.2928
           12           6      0.3667      0.0333   1411.0392    703.0000     49.3421
           12           7      0.3667      0.0400   1411.9025    703.0000     49.3907
           12           8      0.3667      0.0467   1412.7501    703.0000     49.4385
           12           9      0.3667      0.0533   1413.5817    703.0000     49.4855
           12          10      0.3667      0.0600   1414.3968    703.0000     49.5316
           12          11      0.3667      0.0667   1415.1953    703.0000     49.5769
           12          12      0.3667      0.0733   1415.9769    703.0000     49.6213
           12          13      0.3667      0.0800   1416.7415    703.0000     49.6648
           12          14      0.3667      0.0867   1417.4889    703.0000     49.7074
           12          15      0.3667      0.0933   1418.2193    703.0000     49.7491
           12          16      0.3667      0.1000   1418.9325    703.0000     49.7899
           12          17      0.3667      0.1067   1419.6286    703.0000     49.8297
           12          18      0.3667      0.1133   1420.3080    703.0000     49.8687
           12          19      0.3667      0.1200   1420.9706    703.0000     49.9068
           12          20      0.3667      0.1267   1421.6169    703.0000     49.9439
           12          21      0.3667      0.1333   1422.2472    703.0000     49.9802
           12          22      0.3667      0.1400   1422.8617    703.0000     50.0157
           12          23      0.3667      0.1467   1423.4611    703.0000     50.0503
           12          24      0.3667      0.1533   1424.0457    703.0000     50.0840
           12          25      0.3667      0.1600   1424.6161    703.0000     50.1171
           12          26      0.3667      0.1667   1425.1730    703.0000     50.1493
           12          27      0.3667      0.1733   1425.7168    703.0000     50.1809
           12          28      0.3667      0.1800   1426.2484    703.0000     50.2117
           12          29      0.3667      0.1867   1426.7683    703.0000     50.2420
           12          30      0.3667      0.1933   1427.2775    703.0000     50.2716
           12          31      0.3667      0.2000   1427.7766    703.0000     50.3007
           13           1      0.4000      0.0000   1406.6325    703.0000     49.0955
           13           2      0.4000      0.0067   1407.5749    703.0000     49.1480
           13           3      0.4000      0.0133   1408.5039    703.0000     49.1999
           13           4      0.4000      0.0200   1409.4189    703.0000     49.2512
           13           5      0.4000      0.0267   1410.3192    703.0000     49.3017
           13           6      0.4000      0.0333   1411.2041    703.0000     49.3514
           13           7      0.4000      0.0400   1412.0732    703.0000     49.4003
           13           8      0.4000      0.0467   1412.9260    703.0000     49.4485
           13           9      0.4000      0.0533   1413.7621    703.0000     49.4957
           13          10      0.4000      0.0600   1414.5811    703.0000     49.5421
           13          11      0.4000      0.0667   1415.3827    703.0000     49.5876
           13          12      0.4000      0.0733   1416.1668    703.0000     49.6321
           13          13      0.4000      0.0800   1416.9331    703.0000     49.6757
           13          14      0.4000      0.0867   1417.6816    703.0000     49.7184
           13          15      0.4000      0.0933   1418.4122    703.0000     49.7601
           13          16      0.4000      0.1000   1419.1250    703.0000     49.8009
           13          17      0.4000      0.1067   1419.8201    703.0000     49.8407
           13          18      0.4000      0.1133   1420.4975    703.0000     49.8796
           13          19      0.4000      0.1200   1421.1576    703.0000     49.9175
           13          20      0.4000      0.1267   1421.8007    703.0000     49.9545
           13          21      0.4000      0.1333   1422.4270    703.0000     49.9906
           13          22      0.4000      0.1400   1423.0369    703.0000     50.0258
           13          23      0.4000      0.1467   1423.6310    703.0000     50.0601
           13          24      0.4000      0.1533   1424.2097    703.0000     50.0935
           13          25      0.4000      0.1600   1424.7736    703.0000     50.1262
           13          26      0.4000      0.1667   1425.3233    703.0000     50.1580
           13          27      0.4000      0.1733   1425.8595    703.0000     50.1892
           13          28      0.4000      0.1800   1426.3828    703.0000     50.2196
           13          29      0.4000      0.1867   1426.8940    703.0000     50.2493
           13          30      0.4000      0.1933   1427.3939    703.0000     50.2784
           13          31      0.4000      0.2000   1427.8834    703.0000     50.3069
           14           1      0.4333      0.0000   1406.7176    703.0000     49.1003
           14           2      0.4333      0.0067   1407.6659    703.0000     49.1531
           14           3      0.4333      0.0133   1408.6004    703.0000     49.2053
           14           4      0.4333      0.0200   1409.5205    703.0000     49.2569
           14           5      0.4333      0.0267   1410.4254    703.0000     49.3076
           14           6      0.4333      0.0333   1411.3147    703.0000     49.3576
           14           7      0.4333      0.0400   1412.1877    703.0000     49.4068
           14           8      0.4333      0.0467   1413.0440    703.0000     49.4551
           14           9      0.4333      0.0533   1413.8830    703.0000     49.5026
           14          10      0.4333      0.0600   1414.7046    703.0000     49.5491
           14          11      0.4333      0.0667   1415.5084    703.0000     49.5947
           14          12      0.4333      0.0733   1416.2940    703.0000     49.6394
           14          13      0.4333      0.0800   1417.0615    703.0000     49.6831
           14          14      0.4333      0.0867   1417.8107    703.0000     49.7258
           14          15      0.4333      0.0933   1418.5415    703.0000     49.7675
           14          16      0.4333      0.1000   1419.2540    703.0000     49.8083
           14          17      0.4333      0.1067   1419.9483    703.0000     49.8481
           14          18      0.4333      0.1133   1420.6245    703.0000     49.8869
           14          19      0.4333      0.1200   1421.2829    703.0000     49.9247
           14          20      0.4333      0.1267   1421.9237    703.0000     49.9616
           14          21      0.4333      0.1333   1422.5474    703.0000     49.9975
           14          22      0.4333      0.1400   1423.1542    703.0000     50.0325
           14          23      0.4333      0.1467   1423.7447    703.0000     50.0666
           14          24      0.4333      0.1533   1424.3195    703.0000     50.0999
           14          25      0.4333      0.1600   1424.8790    703.0000     50.1323
           14          26      0.4333      0.1667   1425.4239    703.0000     50.1639
           14          27      0.4333      0.1733   1425.9549    703.0000     50.1947
           14          28      0.4333      0.1800   1426.4727    703.0000     50.2248
           14          29      0.4333      0.1867   1426.9781    703.0000     50.2542
           14          30      0.4333      0.1933   1427.4718    703.0000     50.2829
           14          31      0.4333      0.2000   1427.9549    703.0000     50.3111
           15           1      0.4667      0.0000   1406.7666    703.0000     49.1030
           15           2      0.4667      0.0067   1407.7182    703.0000     49.1560
           15           3      0.4667      0.0133   1408.6558    703.0000     49.2084
           15           4      0.4667      0.0200   1409.5788    703.0000     49.2601
           15           5      0.4667      0.0267   1410.4865    703.0000     49.3111
           15           6      0.4667      0.0333   1411.3782    703.0000     49.3612
           15           7      0.4667      0.0400   1412.2535    703.0000     49.4105
           15           8      0.4667      0.0467   1413.1117    703.0000     49.4589
           15           9      0.4667      0.0533   1413.9525    703.0000     49.5065
           15          10      0.4667      0.0600   1414.7756    703.0000     49.5531
           15          11      0.4667      0.0667   1415.5805    703.0000     49.5988
           15          12      0.4667      0.0733   1416.3672    703.0000     49.6435
           15          13      0.4667      0.0800   1417.1353    703.0000     49.6873
           15          14      0.4667      0.0867   1417.8848    703.0000     49.7300
           15          15      0.4667      0.0933   1418.6158    703.0000     49.7718
           15          16      0.4667      0.1000   1419.3281    703.0000     49.8125
           15          17      0.4667      0.1067   1420.0219    703.0000     49.8523
           15          18      0.4667      0.1133   1420.6974    703.0000     49.8911
           15          19      0.4667      0.1200   1421.3548    703.0000     49.9288
           15          20      0.4667      0.1267   1421.9944    703.0000     49.9657
           15          21      0.4667      0.1333   1422.6165    703.0000     50.0015
           15          22      0.4667      0.1400   1423.2215    703.0000     50.0364
           15          23      0.4667      0.1467   1423.8100    703.0000     50.0704
           15          24      0.4667      0.1533   1424.3825    703.0000     50.1035
           15          25      0.4667      0.1600   1424.9394    703.0000     50.1358
           15          26      0.4667      0.1667   1425.4816    703.0000     50.1672
           15          27      0.4667      0.1733   1426.0096    703.0000     50.1979
           15          28      0.4667      0.1800   1426.5243    703.0000     50.2278
           15          29      0.4667      0.1867   1427.0263    703.0000     50.2570
           15          30      0.4667      0.1933   1427.5165    703.0000     50.2855
           15          31      0.4667      0.2000   1427.9958    703.0000     50.3135
           16           1      0.5000      0.0000   1406.7826    703.0000     49.1039
           16           2      0.5000      0.0067   1407.7352    703.0000     49.1570
           16           3      0.5000      0.0133   1408.6739    703.0000     49.2095
           16           4      0.5000      0.0200   1409.5979    703.0000     49.2612
           16           5      0.5000      0.0267   1410.5065    703.0000     49.3122
           16           6      0.5000      0.0333   1411.3990    703.0000     49.3624
           16           7      0.5000      0.0400   1412.2750    703.0000     49.4117
           16           8      0.5000      0.0467   1413.1339    703.0000     49.4602
           16           9      0.5000      0.0533   1413.9753    703.0000     49.5078
           16          10      0.5000      0.0600   1414.7988    703.0000     49.5544
           16          11      0.5000      0.0667   1415.6041    703.0000     49.6001
           16          12      0.5000      0.0733   1416.3910    703.0000     49.6449
           16          13      0.5000      0.0800   1417.1594    703.0000     49.6886
           16          14      0.5000      0.0867   1417.9090    703.0000     49.7314
           16          15      0.5000      0.0933   1418.6400    703.0000     49.7732
           16          16      0.5000      0.1000   1419.3523    703.0000     49.8139
           16          17      0.5000      0.1067   1420.0459    703.0000     49.8537
           16          18      0.5000      0.1133   1420.7212    703.0000     49.8924
           16          19      0.5000      0.1200   1421.3783    703.0000     49.9302
           16          20      0.5000      0.1267   1422.0174    703.0000     49.9670
           16          21      0.5000      0.1333   1422.6390    703.0000     50.0028
           16          22      0.5000      0.1400   1423.2435    703.0000     50.0377
           16          23      0.5000      0.1467   1423.8313    703.0000     50.0716
           16          24      0.5000      0.1533   1424.4030    703.0000     50.1047
           16          25      0.5000      0.1600   1424.9592    703.0000     50.1369
           16          26      0.5000      0.1667   1425.5005    703.0000     50.1683
           16          27      0.5000      0.1733   1426.0275    703.0000     50.1989
           16          28      0.5000      0.1800   1426.5411    703.0000     50.2288
           16          29      0.5000      0.1867   1427.0421    703.0000     50.2579
           16          30      0.5000      0.1933   1427.5311    703.0000     50.2864
           16          31      0.5000      0.2000   1428.0092    703.0000     50.3143
           17           1      0.5333      0.0000   1406.7667    703.0000     49.1030
           17           2      0.5333      0.0067   1407.7183    703.0000     49.1561
           17           3      0.5333      0.0133   1408.6559    703.0000     49.2084
           17           4      0.5333      0.0200   1409.5789    703.0000     49.2601
           17           5      0.5333      0.0267   1410.4866    703.0000     49.3111
           17           6      0.5333      0.0333   1411.3784    703.0000     49.3612
           17           7      0.5333      0.0400   1412.2536    703.0000     49.4105
           17           8      0.5333      0.0467   1413.1119    703.0000     49.4590
           17           9      0.5333      0.0533   1413.9527    703.0000     49.5065
           17          10      0.5333      0.0600   1414.7757    703.0000     49.5531
           17          11      0.5333      0.0667   1415.5807    703.0000     49.5988
           17          12      0.5333      0.0733   1416.3673    703.0000     49.6435
           17          13      0.5333      0.0800   1417.1354    703.0000     49.6873
           17          14      0.5333      0.0867   1417.8850    703.0000     49.7300
           17          15      0.5333      0.0933   1418.6159    703.0000     49.7718
           17          16      0.5333      0.1000   1419.3282    703.0000     49.8125
           17          17      0.5333      0.1067   1420.0220    703.0000     49.8523
           17          18      0.5333      0.1133   1420.6975    703.0000     49.8911
           17          19      0.5333      0.1200   1421.3549    703.0000     49.9288
           17          20      0.5333      0.1267   1421.9945    703.0000     49.9657
           17          21      0.5333      0.1333   1422.6166    703.0000     50.0015
           17          22      0.5333      0.1400   1423.2217    703.0000     50.0364
           17          23      0.5333      0.1467   1423.8101    703.0000     50.0704
           17          24      0.5333      0.1533   1424.3826    703.0000     50.1035
           17          25      0.5333      0.1600   1424.9396    703.0000     50.1358
           17          26      0.5333      0.1667   1425.4817    703.0000     50.1672
           17          27      0.5333      0.1733   1426.0097    703.0000     50.1979
           17          28      0.5333      0.1800   1426.5244    703.0000     50.2278
           17          29      0.5333      0.1867   1427.0264    703.0000     50.2570
           17          30      0.5333      0.1933   1427.5166    703.0000     50.2855
           17          31      0.5333      0.2000   1427.9959    703.0000     50.3135
           18           1      0.5667      0.0000   1406.7178    703.0000     49.1003
           18           2      0.5667      0.0067   1407.6661    703.0000     49.1531
           18           3      0.5667      0.0133   1408.6006    703.0000     49.2054
           18           4      0.5667      0.0200   1409.5207    703.0000     49.2569
           18           5      0.5667      0.0267   1410.4257    703.0000     49.3076
           18           6      0.5667      0.0333   1411.3150    703.0000     49.3576
           18           7      0.5667      0.0400   1412.1880    703.0000     49.4068
           18           8      0.5667      0.0467   1413.0442    703.0000     49.4551
           18           9      0.5667      0.0533   1413.8833    703.0000     49.5026
           18          10      0.5667      0.0600   1414.7049    703.0000     49.5491
           18          11      0.5667      0.0667   1415.5086    703.0000     49.5947
           18          12      0.5667      0.0733   1416.2943    703.0000     49.6394
           18          13      0.5667      0.0800   1417.0618    703.0000     49.6831
           18          14      0.5667      0.0867   1417.8110    703.0000     49.7258
           18          15      0.5667      0.0933   1418.5418    703.0000     49.7675
           18          16      0.5667      0.1000   1419.2543    703.0000     49.8083
           18          17      0.5667      0.1067   1419.9486    703.0000     49.8481
           18          18      0.5667      0.1133   1420.6248    703.0000     49.8869
           18          19      0.5667      0.1200   1421.2832    703.0000     49.9247
           18          20      0.5667      0.1267   1421.9240    703.0000     49.9616
           18          21      0.5667      0.1333   1422.5476    703.0000     49.9975
           18          22      0.5667      0.1400   1423.1545    703.0000     50.0325
           18          23      0.5667      0.1467   1423.7450    703.0000     50.0667
           18          24      0.5667      0.1533   1424.3197    703.0000     50.0999
           18          25      0.5667      0.1600   1424.8792    703.0000     50.1323
           18          26      0.5667      0.1667   1425.4241    703.0000     50.1639
           18          27      0.5667      0.1733   1425.9551    703.0000     50.1947
           18          28      0.5667      0.1800   1426.4729    703.0000     50.2248
           18          29      0.5667      0.1867   1426.9783    703.0000     50.2542
           18          30      0.5667      0.1933   1427.4720    703.0000     50.2829
           18          31      0.5667      0.2000   1427.9550    703.0000     50.3111
           19           1      0.6000      0.0000   1406.6328    703.0000     49.0955
           19           2      0.6000      0.0067   1407.5752    703.0000     49.1481
           19           3      0.6000      0.0133   1408.5043    703.0000     49.2000
           19           4      0.6000      0.0200   1409.4193    703.0000     49.2512
           19           5      0.6000      0.0267   1410.3196    703.0000     49.3017
           19           6      0.6000      0.0333   1411.2045    703.0000     49.3514
           19           7      0.6000      0.0400   1412.0736    703.0000     49.4004
           19           8      0.6000      0.0467   1412.9264    703.0000     49.4485
           19           9      0.6000      0.0533   1413.7625    703.0000     49.4957
           19          10      0.6000      0.0600   1414.5815    703.0000     49.5421
           19          11      0.6000      0.0667   1415.3832    703.0000     49.5876
           19          12      0.6000      0.0733   1416.1673    703.0000     49.6321
           19          13      0.6000      0.0800   1416.9336    703.0000     49.6758
           19          14      0.6000      0.0867   1417.6821    703.0000     49.7184
           19          15      0.6000      0.0933   1418.4127    703.0000     49.7602
           19          16      0.6000      0.1000   1419.1255    703.0000     49.8009
           19          17      0.6000      0.1067   1419.8205    703.0000     49.8407
           19          18      0.6000      0.1133   1420.4980    703.0000     49.8796
           19          19      0.6000      0.1200   1421.1581    703.0000     49.9175
           19          20      0.6000      0.1267   1421.8011    703.0000     49.9545
           19          21      0.6000      0.1333   1422.4274    703.0000     49.9906
           19          22      0.6000      0.1400   1423.0374    703.0000     50.0258
           19          23      0.6000      0.1467   1423.6314    703.0000     50.0601
           19          24      0.6000      0.1533   1424.2101    703.0000     50.0936
           19          25      0.6000      0.1600   1424.7740    703.0000     50.1262
           19          26      0.6000      0.1667   1425.3237    703.0000     50.1581
           19          27      0.6000      0.1733   1425.8598    703.0000     50.1892
           19          28      0.6000      0.1800   1426.3831    703.0000     50.2196
           19          29      0.6000      0.1867   1426.8943    703.0000     50.2493
           19          30      0.6000      0.1933   1427.3942    703.0000     50.2784
           19          31      0.6000      0.2000   1427.8837    703.0000     50.3069
           20           1      0.6333      0.0000   1406.5060    703.0000     49.0885
           20           2      0.6333      0.0067   1407.4398    703.0000     49.1405
           20           3      0.6333      0.0133   1408.3607    703.0000     49.1919
           20           4      0.6333      0.0200   1409.2681    703.0000     49.2427
           20           5      0.6333      0.0267   1410.1613    703.0000     49.2928
           20           6      0.6333      0.0333   1411.0398    703.0000     49.3422
           20           7      0.6333      0.0400   1411.9031    703.0000     49.3908
           20           8      0.6333      0.0467   1412.7508    703.0000     49.4386
           20           9      0.6333      0.0533   1413.5823    703.0000     49.4855
           20          10      0.6333      0.0600   1414.3975    703.0000     49.5317
           20          11      0.6333      0.0667   1415.1960    703.0000     49.5770
           20          12      0.6333      0.0733   1415.9776    703.0000     49.6214
           20          13      0.6333      0.0800   1416.7422    703.0000     49.6649
           20          14      0.6333      0.0867   1417.4896    703.0000     49.7075
           20          15      0.6333      0.0933   1418.2200    703.0000     49.7492
           20          16      0.6333      0.1000   1418.9331    703.0000     49.7899
           20          17      0.6333      0.1067   1419.6293    703.0000     49.8298
           20          18      0.6333      0.1133   1420.3086    703.0000     49.8687
           20          19      0.6333      0.1200   1420.9713    703.0000     49.9068
           20          20      0.6333      0.1267   1421.6176    703.0000     49.9440
           20          21      0.6333      0.1333   1422.2478    703.0000     49.9803
           20          22      0.6333      0.1400   1422.8624    703.0000     50.0157
           20          23      0.6333      0.1467   1423.4617    703.0000     50.0503
           20          24      0.6333      0.1533   1424.0463    703.0000     50.0841
           20          25      0.6333      0.1600   1424.6167    703.0000     50.1171
           20          26      0.6333      0.1667   1425.1735    703.0000     50.1494
           20          27      0.6333      0.1733   1425.7173    703.0000     50.1809
           20          28      0.6333      0.1800   1426.2488    703.0000     50.2118
           20          29      0.6333      0.1867   1426.7688    703.0000     50.2420
           20          30      0.6333      0.1933   1427.2779    703.0000     50.2716
           20          31      0.6333      0.2000   1427.7770    703.0000     50.3007
           21           1      0.6667      0.0000   1406.3294    703.0000     49.0786
           21           2      0.6667      0.0067   1407.2511    703.0000     49.1300
           21           3      0.6667      0.0133   1408.1606    703.0000     49.1808
           21           4      0.6667      0.0200   1409.0574    703.0000     49.2309
           21           5      0.6667      0.0267   1409.9408    703.0000     49.2804
           21           6      0.6667      0.0333   1410.8103    703.0000     49.3293
           21           7      0.6667      0.0400   1411.6655    703.0000     49.3774
           21           8      0.6667      0.0467   1412.5059    703.0000     49.4247
           21           9      0.6667      0.0533   1413.3311    703.0000     49.4713
           21          10      0.6667      0.0600   1414.1408    703.0000     49.5172
           21          11      0.6667      0.0667   1414.9349    703.0000     49.5622
           21          12      0.6667      0.0733   1415.7130    703.0000     49.6063
           21          13      0.6667      0.0800   1416.4751    703.0000     49.6497
           21          14      0.6667      0.0867   1417.2210    703.0000     49.6921
           21          15      0.6667      0.0933   1417.9509    703.0000     49.7338
           21          16      0.6667      0.1000   1418.6646    703.0000     49.7746
           21          17      0.6667      0.1067   1419.3622    703.0000     49.8145
           21          18      0.6667      0.1133   1420.0441    703.0000     49.8536
           21          19      0.6667      0.1200   1420.7102    703.0000     49.8918
           21          20      0.6667      0.1267   1421.3610    703.0000     49.9292
           21          21      0.6667      0.1333   1421.9967    703.0000     49.9658
           21          22      0.6667      0.1400   1422.6177    703.0000     50.0016
           21          23      0.6667      0.1467   1423.2243    703.0000     50.0366
           21          24      0.6667      0.1533   1423.8172    703.0000     50.0708
           21          25      0.6667      0.1600   1424.3967    703.0000     50.1044
           21          26      0.6667      0.1667   1424.9634    703.0000     50.1372
           21          27      0.6667      0.1733   1425.5179    703.0000     50.1693
           21          28      0.6667      0.1800   1426.0609    703.0000     50.2009
           21          29      0.6667      0.1867   1426.5931    703.0000     50.2318
           21          30      0.6667      0.1933   1427.1151    703.0000     50.2622
           21          31      0.6667      0.2000   1427.6276    703.0000     50.2920
           22           1      0.7000      0.0000   1406.0920    703.0000     49.0654
           22           2      0.7000      0.0067   1406.9974    703.0000     49.1158
           22           3      0.7000      0.0133   1407.8916    703.0000     49.1657
           22           4      0.7000      0.0200   1408.7741    703.0000     49.2151
           22           5      0.7000      0.0267   1409.6443    703.0000     49.2638
           22           6      0.7000      0.0333   1410.5016    703.0000     49.3119
           22           7      0.7000      0.0400   1411.3458    703.0000     49.3594
           22           8      0.7000      0.0467   1412.1763    703.0000     49.4062
           22           9      0.7000      0.0533   1412.9929    703.0000     49.4522
           22          10      0.7000      0.0600   1413.7952    703.0000     49.4976
           22          11      0.7000      0.0667   1414.5832    703.0000     49.5422
           22          12      0.7000      0.0733   1415.3565    703.0000     49.5861
           22          13      0.7000      0.0800   1416.1151    703.0000     49.6292
           22          14      0.7000      0.0867   1416.8589    703.0000     49.6715
           22          15      0.7000      0.0933   1417.5879    703.0000     49.7131
           22          16      0.7000      0.1000   1418.3021    703.0000     49.7538
           22          17      0.7000      0.1067   1419.0017    703.0000     49.7938
           22          18      0.7000      0.1133   1419.6868    703.0000     49.8331
           22          19      0.7000      0.1200   1420.3576    703.0000     49.8715
           22          20      0.7000      0.1267   1421.0143    703.0000     49.9093
           22          21      0.7000      0.1333   1421.6572    703.0000     49.9462
           22          22      0.7000      0.1400   1422.2867    703.0000     49.9825
           22          23      0.7000      0.1467   1422.9032    703.0000     50.0180
           22          24      0.7000      0.1533   1423.5071    703.0000     50.0529
           22          25      0.7000      0.1600   1424.0988    703.0000     50.0871
           22          26      0.7000      0.1667   1424.6789    703.0000     50.1207
           22          27      0.7000      0.1733   1425.2479    703.0000     50.1537
           22          28      0.7000      0.1800   1425.8064    703.0000     50.1861
           22          29      0.7000      0.1867   1426.3551    703.0000     50.2180
           22          30      0.7000      0.1933   1426.8945    703.0000     50.2493
           22          31      0.7000      0.2000   1427.4253    703.0000     50.2802
           23           1      0.7333      0.0000   1405.7795    703.0000     49.0481
           23           2      0.7333      0.0067   1406.6635    703.0000     49.0972
           23           3      0.7333      0.0133   1407.5376    703.0000     49.1460
           23           4      0.7333      0.0200   1408.4011    703.0000     49.1942
           23           5      0.7333      0.0267   1409.2537    703.0000     49.2419
           23           6      0.7333      0.0333   1410.0949    703.0000     49.2891
           23           7      0.7333      0.0400   1410.9244    703.0000     49.3357
           23           8      0.7333      0.0467   1411.7418    703.0000     49.3817
           23           9      0.7333      0.0533   1412.5468    703.0000     49.4270
           23          10      0.7333      0.0600   1413.3392    703.0000     49.4718
           23          11      0.7333      0.0667   1414.1188    703.0000     49.5159
           23          12      0.7333      0.0733   1414.8855    703.0000     49.5594
           23          13      0.7333      0.0800   1415.6393    703.0000     49.6021
           23          14      0.7333      0.0867   1416.3799    703.0000     49.6442
           23          15      0.7333      0.0933   1417.1076    703.0000     49.6857
           23          16      0.7333      0.1000   1417.8223    703.0000     49.7264
           23          17      0.7333      0.1067   1418.5241    703.0000     49.7665
           23          18      0.7333      0.1133   1419.2132    703.0000     49.8060
           23          19      0.7333      0.1200   1419.8899    703.0000     49.8447
           23          20      0.7333      0.1267   1420.5542    703.0000     49.8828
           23          21      0.7333      0.1333   1421.2065    703.0000     49.9203
           23          22      0.7333      0.1400   1421.8471    703.0000     49.9572
           23          23      0.7333      0.1467   1422.4764    703.0000     49.9934
           23          24      0.7333      0.1533   1423.0948    703.0000     50.0291
           23          25      0.7333      0.1600   1423.7026    703.0000     50.0642
           23          26      0.7333      0.1667   1424.3004    703.0000     50.0988
           23          27      0.7333      0.1733   1424.8885    703.0000     50.1328
           23          28      0.7333      0.1800   1425.4676    703.0000     50.1664
           23          29      0.7333      0.1867   1426.0381    703.0000     50.1995
           23          30      0.7333      0.1933   1426.6007    703.0000     50.2322
           23          31      0.7333      0.2000   1427.1558    703.0000     50.2645
           24           1      0.7667      0.0000   1405.3739    703.0000     49.0255
           24           2      0.7667      0.0067   1406.2302    703.0000     49.0731
           24           3      0.7667      0.0133   1407.0780    703.0000     49.1203
           24           4      0.7667      0.0200   1407.9168    703.0000     49.1671
           24           5      0.7667      0.0267   1408.7465    703.0000     49.2135
           24           6      0.7667      0.0333   1409.5665    703.0000     49.2594
           24           7      0.7667      0.0400   1410.3766    703.0000     49.3049
           24           8      0.7667      0.0467   1411.1765    703.0000     49.3498
           24           9      0.7667      0.0533   1411.9661    703.0000     49.3943
           24          10      0.7667      0.0600   1412.7451    703.0000     49.4382
           24          11      0.7667      0.0667   1413.5134    703.0000     49.4816
           24          12      0.7667      0.0733   1414.2711    703.0000     49.5245
           24          13      0.7667      0.0800   1415.0179    703.0000     49.5669
           24          14      0.7667      0.0867   1415.7540    703.0000     49.6087
           24          15      0.7667      0.0933   1416.4793    703.0000     49.6499
           24          16      0.7667      0.1000   1417.1940    703.0000     49.6906
           24          17      0.7667      0.1067   1417.8982    703.0000     49.7308
           24          18      0.7667      0.1133   1418.5920    703.0000     49.7704
           24          19      0.7667      0.1200   1419.2758    703.0000     49.8095
           24          20      0.7667      0.1267   1419.9495    703.0000     49.8481
           24          21      0.7667      0.1333   1420.6137    703.0000     49.8863
           24          22      0.7667      0.1400   1421.2685    703.0000     49.9239
           24          23      0.7667      0.1467   1421.9142    703.0000     49.9610
           24          24      0.7667      0.1533   1422.5512    703.0000     49.9977
           24          25      0.7667      0.1600   1423.1799    703.0000     50.0340
           24          26      0.7667      0.1667   1423.8006    703.0000     50.0699
           24          27      0.7667      0.1733   1424.4138    703.0000     50.1053
           24          28      0.7667      0.1800   1425.0199    703.0000     50.1405
           24          29      0.7667      0.1867   1425.6192    703.0000     50.1752
           24          30      0.7667      0.1933   1426.2123    703.0000     50.2097
           24          31      0.7667      0.2000   1426.7996    703.0000     50.2438
           25           1      0.8000      0.0000   1404.8533    703.0000     48.9966
           25           2      0.8000      0.0067   1405.6738    703.0000     49.0422
           25           3      0.8000      0.0133   1406.4877    703.0000     49.0875
           25           4      0.8000      0.0200   1407.2946    703.0000     49.1324
           25           5      0.8000      0.0267   1408.0944    703.0000     49.1771
           25           6      0.8000      0.0333   1408.8866    703.0000     49.2214
           25           7      0.8000      0.0400   1409.6713    703.0000     49.2653
           25           8      0.8000      0.0467   1410.4481    703.0000     49.3089
           25           9      0.8000      0.0533   1411.2170    703.0000     49.3521
           25          10      0.8000      0.0600   1411.9779    703.0000     49.3950
           25          11      0.8000      0.0667   1412.7308    703.0000     49.4374
           25          12      0.8000      0.0733   1413.4757    703.0000     49.4795
           25          13      0.8000      0.0800   1414.2126    703.0000     49.5212
           25          14      0.8000      0.0867   1414.9416    703.0000     49.5625
           25          15      0.8000      0.0933   1415.6628    703.0000     49.6035
           25          16      0.8000      0.1000   1416.3764    703.0000     49.6440
           25          17      0.8000      0.1067   1417.0825    703.0000     49.6843
           25          18      0.8000      0.1133   1417.7814    703.0000     49.7241
           25          19      0.8000      0.1200   1418.4732    703.0000     49.7636
           25          20      0.8000      0.1267   1419.1582    703.0000     49.8028
           25          21      0.8000      0.1333   1419.8368    703.0000     49.8417
           25          22      0.8000      0.1400   1420.5091    703.0000     49.8802
           25          23      0.8000      0.1467   1421.1755    703.0000     49.9185
           25          24      0.8000      0.1533   1421.8362    703.0000     49.9565
           25          25      0.8000      0.1600   1422.4916    703.0000     49.9943
           25          26      0.8000      0.1667   1423.1420    703.0000     50.0318
           25          27      0.8000      0.1733   1423.7876    703.0000     50.0691
           25          28      0.8000      0.1800   1424.4288    703.0000     50.1062
           25          29      0.8000      0.1867   1425.0659    703.0000     50.1431
           25          30      0.8000      0.1933   1425.6991    703.0000     50.1799
           25          31      0.8000      0.2000   1426.3288    703.0000     50.2164
           26           1      0.8333      0.0000   1404.1915    703.0000     48.9600
           26           2      0.8333      0.0067   1404.9665    703.0000     49.0029
           26           3      0.8333      0.0133   1405.7370    703.0000     49.0457
           26           4      0.8333      0.0200   1406.5028    703.0000     49.0883
           26           5      0.8333      0.0267   1407.2638    703.0000     49.1307
           26           6      0.8333      0.0333   1408.0199    703.0000     49.1729
           26           7      0.8333      0.0400   1408.7710    703.0000     49.2149
           26           8      0.8333      0.0467   1409.5171    703.0000     49.2567
           26           9      0.8333      0.0533   1410.2582    703.0000     49.2982
           26          10      0.8333      0.0600   1410.9943    703.0000     49.3396
           26          11      0.8333      0.0667   1411.7257    703.0000     49.3808
           26          12      0.8333      0.0733   1412.4523    703.0000     49.4217
           26          13      0.8333      0.0800   1413.1744    703.0000     49.4625
           26          14      0.8333      0.0867   1413.8922    703.0000     49.5031
           26          15      0.8333      0.0933   1414.6059    703.0000     49.5435
           26          16      0.8333      0.1000   1415.3158    703.0000     49.5838
           26          17      0.8333      0.1067   1416.0221    703.0000     49.6239
           26          18      0.8333      0.1133   1416.7251    703.0000     49.6639
           26          19      0.8333      0.1200   1417.4252    703.0000     49.7038
           26          20      0.8333      0.1267   1418.1228    703.0000     49.7436
           26          21      0.8333      0.1333   1418.8180    703.0000     49.7833
           26          22      0.8333      0.1400   1419.5112    703.0000     49.8230
           26          23      0.8333      0.1467   1420.2027    703.0000     49.8627
           26          24      0.8333      0.1533   1420.8929    703.0000     49.9023
           26          25      0.8333      0.1600   1421.5819    703.0000     49.9419
           26          26      0.8333      0.1667   1422.2700    703.0000     49.9815
           26          27      0.8333      0.1733   1422.9575    703.0000     50.0212
           26          28      0.8333      0.1800   1423.6444    703.0000     50.0608
           26          29      0.8333      0.1867   1424.3309    703.0000     50.1006
           26          30      0.8333      0.1933   1425.0172    703.0000     50.1403
           26          31      0.8333      0.2000   1425.7031    703.0000     50.1801
           27           1      0.8667      0.0000   1403.3595    703.0000     48.9139
           27           2      0.8667      0.0067   1404.0770    703.0000     48.9536
           27           3      0.8667      0.0133   1404.7924    703.0000     48.9933
           27           4      0.8667      0.0200   1405.5056    703.0000     49.0328
           27           5      0.8667      0.0267   1406.2166    703.0000     49.0724
           27           6      0.8667      0.0333   1406.9255    703.0000     49.1118
           27           7      0.8667      0.0400   1407.6323    703.0000     49.1513
           27           8      0.8667      0.0467   1408.3373    703.0000     49.1906
           27           9      0.8667      0.0533   1409.0406    703.0000     49.2300
           27          10      0.8667      0.0600   1409.7424    703.0000     49.2693
           27          11      0.8667      0.0667   1410.4431    703.0000     49.3086
           27          12      0.8667      0.0733   1411.1429    703.0000     49.3480
           27          13      0.8667      0.0800   1411.8423    703.0000     49.3873
           27          14      0.8667      0.0867   1412.5417    703.0000     49.4268
           27          15      0.8667      0.0933   1413.2414    703.0000     49.4663
           27          16      0.8667      0.1000   1413.9420    703.0000     49.5059
           27          17      0.8667      0.1067   1414.6440    703.0000     49.5457
           27          18      0.8667      0.1133   1415.3479    703.0000     49.5856
           27          19      0.8667      0.1200   1416.0541    703.0000     49.6257
           27          20      0.8667      0.1267   1416.7633    703.0000     49.6661
           27          21      0.8667      0.1333   1417.4758    703.0000     49.7067
           27          22      0.8667      0.1400   1418.1921    703.0000     49.7476
           27          23      0.8667      0.1467   1418.9128    703.0000     49.7888
           27          24      0.8667      0.1533   1419.6381    703.0000     49.8303
           27          25      0.8667      0.1600   1420.3684    703.0000     49.8722
           27          26      0.8667      0.1667   1421.1038    703.0000     49.9144
           27          27      0.8667      0.1733   1421.8446    703.0000     49.9570
           27          28      0.8667      0.1800   1422.5908    703.0000     50.0000
           27          29      0.8667      0.1867   1423.3423    703.0000     50.0434
           27          30      0.8667      0.1933   1424.0989    703.0000     50.0871
           27          31      0.8667      0.2000   1424.8603    703.0000     50.1312
           28           1      0.9000      0.0000   1402.3276    703.0000     48.8570
           28           2      0.9000      0.0067   1402.9736    703.0000     48.8926
           28           3      0.9000      0.0133   1403.6198    703.0000     48.9283
           28           4      0.9000      0.0200   1404.2662    703.0000     48.9641
           28           5      0.9000      0.0267   1404.9130    703.0000     48.9999
           28           6      0.9000      0.0333   1405.5604    703.0000     49.0359
           28           7      0.9000      0.0400   1406.2088    703.0000     49.0719
           28           8      0.9000      0.0467   1406.8585    703.0000     49.1081
           28           9      0.9000      0.0533   1407.5099    703.0000     49.1444
           28          10      0.9000      0.0600   1408.1634    703.0000     49.1809
           28          11      0.9000      0.0667   1408.8197    703.0000     49.2176
           28          12      0.9000      0.0733   1409.4793    703.0000     49.2546
           28          13      0.9000      0.0800   1410.1430    703.0000     49.2918
           28          14      0.9000      0.0867   1410.8113    703.0000     49.3293
           28          15      0.9000      0.0933   1411.4852    703.0000     49.3672
           28          16      0.9000      0.1000   1412.1655    703.0000     49.4055
           28          17      0.9000      0.1067   1412.8529    703.0000     49.4443
           28          18      0.9000      0.1133   1413.5486    703.0000     49.4836
           28          19      0.9000      0.1200   1414.2533    703.0000     49.5235
           28          20      0.9000      0.1267   1414.9681    703.0000     49.5640
           28          21      0.9000      0.1333   1415.6938    703.0000     49.6052
           28          22      0.9000      0.1400   1416.4314    703.0000     49.6472
           28          23      0.9000      0.1467   1417.1817    703.0000     49.6899
           28          24      0.9000      0.1533   1417.9454    703.0000     49.7335
           28          25      0.9000      0.1600   1418.7233    703.0000     49.7779
           28          26      0.9000      0.1667   1419.5157    703.0000     49.8233
           28          27      0.9000      0.1733   1420.3231    703.0000     49.8696
           28          28      0.9000      0.1800   1421.1453    703.0000     49.9168
           28          29      0.9000      0.1867   1421.9824    703.0000     49.9650
           28          30      0.9000      0.1933   1422.8337    703.0000     50.0140
           28          31      0.9000      0.2000   1423.6985    703.0000     50.0640
           29           1      0.9333      0.0000   1401.0715    703.0000     48.7878
           29           2      0.9333      0.0067   1401.6300    703.0000     48.8185
           29           3      0.9333      0.0133   1402.1905    703.0000     48.8494
           29           4      0.9333      0.0200   1402.7532    703.0000     48.8804
           29           5      0.9333      0.0267   1403.3184    703.0000     48.9117
           29           6      0.9333      0.0333   1403.8866    703.0000     48.9431
           29           7      0.9333      0.0400   1404.4581    703.0000     48.9747
           29           8      0.9333      0.0467   1405.0336    703.0000     49.0066
           29           9      0.9333      0.0533   1405.6137    703.0000     49.0388
           29          10      0.9333      0.0600   1406.1991    703.0000     49.0714
           29          11      0.9333      0.0667   1406.7906    703.0000     49.1043
           29          12      0.9333      0.0733   1407.3893    703.0000     49.1377
           29          13      0.9333      0.0800   1407.9960    703.0000     49.1716
           29          14      0.9333      0.0867   1408.6121    703.0000     49.2060
           29          15      0.9333      0.0933   1409.2388    703.0000     49.2411
           29          16      0.9333      0.1000   1409.8773    703.0000     49.2769
           29          17      0.9333      0.1067   1410.5294    703.0000     49.3135
           29          18      0.9333      0.1133   1411.1964    703.0000     49.3510
           29          19      0.9333      0.1200   1411.8803    703.0000     49.3895
           29          20      0.9333      0.1267   1412.5826    703.0000     49.4291
           29          21      0.9333      0.1333   1413.3055    703.0000     49.4699
           29          22      0.9333      0.1400   1414.0507    703.0000     49.5120
           29          23      0.9333      0.1467   1414.8202    703.0000     49.5556
           29          24      0.9333      0.1533   1415.6159    703.0000     49.6008
           29          25      0.9333      0.1600   1416.4396    703.0000     49.6476
           29          26      0.9333      0.1667   1417.2929    703.0000     49.6962
           29          27      0.9333      0.1733   1418.1773    703.0000     49.7467
           29          28      0.9333      0.1800   1419.0935    703.0000     49.7991
           29          29      0.9333      0.1867   1420.0420    703.0000     49.8534
           29          30      0.9333      0.1933   1421.0222    703.0000     49.9097
           29          31      0.9333      0.2000   1422.0331    703.0000     49.9679
           30           1      0.9667      0.0000   1399.5793    703.0000     48.7059
           30           2      0.9667      0.0067   1400.0333    703.0000     48.7308
           30           3      0.9667      0.0133   1400.4901    703.0000     48.7558
           30           4      0.9667      0.0200   1400.9502    703.0000     48.7811
           30           5      0.9667      0.0267   1401.4138    703.0000     48.8066
           30           6      0.9667      0.0333   1401.8815    703.0000     48.8324
           30           7      0.9667      0.0400   1402.3538    703.0000     48.8584
           30           8      0.9667      0.0467   1402.8314    703.0000     48.8848
           30           9      0.9667      0.0533   1403.3150    703.0000     48.9115
           30          10      0.9667      0.0600   1403.8056    703.0000     48.9386
           30          11      0.9667      0.0667   1404.3042    703.0000     48.9662
           30          12      0.9667      0.0733   1404.8119    703.0000     48.9943
           30          13      0.9667      0.0800   1405.3302    703.0000     49.0231
           30          14      0.9667      0.0867   1405.8604    703.0000     49.0526
           30          15      0.9667      0.0933   1406.4044    703.0000     49.0828
           30          16      0.9667      0.1000   1406.9640    703.0000     49.1140
           30          17      0.9667      0.1067   1407.5415    703.0000     49.1462
           30          18      0.9667      0.1133   1408.1393    703.0000     49.1796
           30          19      0.9667      0.1200   1408.7601    703.0000     49.2143
           30          20      0.9667      0.1267   1409.4071    703.0000     49.2505
           30          21      0.9667      0.1333   1410.0836    703.0000     49.2884
           30          22      0.9667      0.1400   1410.7936    703.0000     49.3283
           30          23      0.9667      0.1467   1411.5412    703.0000     49.3704
           30          24      0.9667      0.1533   1412.3311    703.0000     49.4149
           30          25      0.9667      0.1600   1413.1683    703.0000     49.4621
           30          26      0.9667      0.1667   1414.0583    703.0000     49.5125
           30          27      0.9667      0.1733   1415.0065    703.0000     49.5662
           30          28      0.9667      0.1800   1416.0185    703.0000     49.6237
           30          29      0.9667      0.1867   1417.0991    703.0000     49.6852
           30          30      0.9667      0.1933   1418.2521    703.0000     49.7510
           30          31      0.9667      0.2000   1419.4785    703.0000     49.8211
           31           1      1.0000      0.0000   1397.8673    703.0000     48.6123
           31           2      1.0000      0.0067   1398.2006    703.0000     48.6305
           31           3      1.0000      0.0133   1398.5365    703.0000     48.6488
           31           4      1.0000      0.0200   1398.8751    703.0000     48.6673
           31           5      1.0000      0.0267   1399.2169    703.0000     48.6860
           31           6      1.0000      0.0333   1399.5621    703.0000     48.7049
           31           7      1.0000      0.0400   1399.9114    703.0000     48.7241
           31           8      1.0000      0.0467   1400.2652    703.0000     48.7435
           31           9      1.0000      0.0533   1400.6242    703.0000     48.7632
           31          10      1.0000      0.0600   1400.9892    703.0000     48.7833
           31          11      1.0000      0.0667   1401.3611    703.0000     48.8037
           31          12      1.0000      0.0733   1401.7409    703.0000     48.8246
           31          13      1.0000      0.0800   1402.1299    703.0000     48.8461
           31          14      1.0000      0.0867   1402.5294    703.0000     48.8681
           31          15      1.0000      0.0933   1402.9410    703.0000     48.8908
           31          16      1.0000      0.1000   1403.3665    703.0000     48.9143
           31          17      1.0000      0.1067   1403.8083    703.0000     48.9387
           31          18      1.0000      0.1133   1404.2688    703.0000     48.9642
           31          19      1.0000      0.1200   1404.7510    703.0000     48.9910
           31          20      1.0000      0.1267   1405.2585    703.0000     49.0191
           31          21      1.0000      0.1333   1405.7955    703.0000     49.0490
           31          22      1.0000      0.1400   1406.3674    703.0000     49.0808
           31          23      1.0000      0.1467   1406.9804    703.0000     49.1149
           31          24      1.0000      0.1533   1407.6426    703.0000     49.1518
           31          25      1.0000      0.1600   1408.3637    703.0000     49.1921
           31          26      1.0000      0.1667   1409.1564    703.0000     49.2365
           31          27      1.0000      0.1733   1410.0372    703.0000     49.2858
           31          28      1.0000      0.1800   1411.0273    703.0000     49.3415
           31          29      1.0000      0.1867   1412.1550    703.0000     49.4050
           31          30      1.0000      0.1933   1413.4582    703.0000     49.4785
           31          31      1.0000      0.2000   1414.9880    703.0000     49.5652
