 ====================================================================================
               Transient state solution for a 2D rectangular plate
                    for applications in steel reheating
                 e.g. Reheating furnaces for rolling processing
 ====================================================================================
 Author: Dickson Alves de Souza

 Based on lectures by professor Roberto Parreiras Tavares

 and book Numerical Heat Transfer and Fluid Flow
 by Suhas V. Patankar (1980)

 Federal University of Minas Gerais (UFMG)
 October 26th, 2017
 ====================================================================================
                              Input parameters:

 Lenght in X direction (meters):           1.0000
 Lenght in Y direction (meters):           0.2000
 Nodes in X direction:                         31
 Nodes in Y direction:                         31
 ====================================================================================

                       STAGE                1/  5
                       START Time:         0.0000
                       END Time:        1140.0000
                       Iterations:              779

 ====================================================================================
 Temperature of fluid at left face (T left):             1223.1500
 Temperature of fluid at right face (T right):           1223.1500
 Temperature of fluid at bottom face (T bottom):         1223.1500
 Temperature of fluid at top face (T top):               1223.1500
 ------------------------------------------------------------------------------------
 Heat transfer coefficient at left face (H left):          50.0000
 Heat transfer coefficient at right face (H right):        50.0000
 Heat transfer coefficient at bottom face (H bottom):       8.0000
 Heat transfer coefficient at top face (H top):           150.0000
 ====================================================================================


 ====================================================================================

                       STAGE                2/  5
                       START Time:      1140.0000
                       END Time:        3060.0000
                       Iterations:              779

 ====================================================================================
 Temperature of fluid at left face (T left):             1423.1500
 Temperature of fluid at right face (T right):           1423.1500
 Temperature of fluid at bottom face (T bottom):         1423.1500
 Temperature of fluid at top face (T top):               1423.1500
 ------------------------------------------------------------------------------------
 Heat transfer coefficient at left face (H left):          50.0000
 Heat transfer coefficient at right face (H right):        50.0000
 Heat transfer coefficient at bottom face (H bottom):       8.0000
 Heat transfer coefficient at top face (H top):           150.0000
 ====================================================================================


 ====================================================================================

                       STAGE                3/  5
                       START Time:      3060.0000
                       END Time:        4980.0000
                       Iterations:              779

 ====================================================================================
 Temperature of fluid at left face (T left):             1513.1500
 Temperature of fluid at right face (T right):           1513.1500
 Temperature of fluid at bottom face (T bottom):         1513.1500
 Temperature of fluid at top face (T top):               1513.1500
 ------------------------------------------------------------------------------------
 Heat transfer coefficient at left face (H left):          50.0000
 Heat transfer coefficient at right face (H right):        50.0000
 Heat transfer coefficient at bottom face (H bottom):       8.0000
 Heat transfer coefficient at top face (H top):           150.0000
 ====================================================================================


 SOLUTION of LINEAR SYSTEM: TDMA (tri-diagonal matrix algorithm)
      ADI approach employed in solution.
 Tolerance:       0.0010

 ====================================================================================
                    Calculation Results
 Current time:    4060.0000000000000       seconds
 Maximum Temperature :    1475.4816871595660
 Minimum Temperature :    1249.3500406940161
 Average(algebraic, non-weigthed) Temperature :    1342.0165870829217
 ====================================================================================
            I           J        X(m)        Y(m)        T(K)  Cp(J/kg.K) K(W/sq-m.K)
 ====================================================================================
            1           1      0.0000      0.0000   1469.4802    703.0000     52.8347
            1           2      0.0000      0.0067   1466.1174    703.0000     52.6229
            1           3      0.0000      0.0133   1462.9306    703.0000     52.4234
            1           4      0.0000      0.0200   1459.9346    703.0000     52.2369
            1           5      0.0000      0.0267   1457.1435    703.0000     52.0640
            1           6      0.0000      0.0333   1454.5708    703.0000     51.9055
            1           7      0.0000      0.0400   1452.2294    703.0000     51.7619
            1           8      0.0000      0.0467   1450.1307    703.0000     51.6337
            1           9      0.0000      0.0533   1448.2856    703.0000     51.5215
            1          10      0.0000      0.0600   1446.7033    703.0000     51.4255
            1          11      0.0000      0.0667   1445.3920    703.0000     51.3462
            1          12      0.0000      0.0733   1444.3583    703.0000     51.2838
            1          13      0.0000      0.0800   1443.6075    703.0000     51.2386
            1          14      0.0000      0.0867   1443.1432    703.0000     51.2107
            1          15      0.0000      0.0933   1442.9677    703.0000     51.2001
            1          16      0.0000      0.1000   1443.0815    703.0000     51.2070
            1          17      0.0000      0.1067   1443.4837    703.0000     51.2312
            1          18      0.0000      0.1133   1444.1717    703.0000     51.2726
            1          19      0.0000      0.1200   1445.1415    703.0000     51.3311
            1          20      0.0000      0.1267   1446.3875    703.0000     51.4064
            1          21      0.0000      0.1333   1447.9028    703.0000     51.4982
            1          22      0.0000      0.1400   1449.6790    703.0000     51.6062
            1          23      0.0000      0.1467   1451.7066    703.0000     51.7299
            1          24      0.0000      0.1533   1453.9746    703.0000     51.8689
            1          25      0.0000      0.1600   1456.4714    703.0000     52.0226
            1          26      0.0000      0.1667   1459.1839    703.0000     52.1903
            1          27      0.0000      0.1733   1462.0985    703.0000     52.3715
            1          28      0.0000      0.1800   1465.2008    703.0000     52.5654
            1          29      0.0000      0.1867   1468.4758    703.0000     52.7713
            1          30      0.0000      0.1933   1471.9080    703.0000     52.9884
            1          31      0.0000      0.2000   1475.4817    703.0000     53.2158
            2           1      0.0333      0.0000   1451.3633    703.0000     51.7090
            2           2      0.0333      0.0067   1446.5832    703.0000     51.4183
            2           3      0.0333      0.0133   1442.0459    703.0000     51.1448
            2           4      0.0333      0.0200   1437.7738    703.0000     50.8895
            2           5      0.0333      0.0267   1433.7889    703.0000     50.6534
            2           6      0.0333      0.0333   1430.1116    703.0000     50.4371
            2           7      0.0333      0.0400   1426.7615    703.0000     50.2416
            2           8      0.0333      0.0467   1423.7563    703.0000     50.0673
            2           9      0.0333      0.0533   1421.1123    703.0000     49.9149
            2          10      0.0333      0.0600   1418.8437    703.0000     49.7848
            2          11      0.0333      0.0667   1416.9630    703.0000     49.6774
            2          12      0.0333      0.0733   1415.4804    703.0000     49.5931
            2          13      0.0333      0.0800   1414.4038    703.0000     49.5320
            2          14      0.0333      0.0867   1413.7390    703.0000     49.4944
            2          15      0.0333      0.0933   1413.4892    703.0000     49.4803
            2          16      0.0333      0.1000   1413.6554    703.0000     49.4897
            2          17      0.0333      0.1067   1414.2361    703.0000     49.5225
            2          18      0.0333      0.1133   1415.2275    703.0000     49.5788
            2          19      0.0333      0.1200   1416.6235    703.0000     49.6581
            2          20      0.0333      0.1267   1418.4157    703.0000     49.7603
            2          21      0.0333      0.1333   1420.5934    703.0000     49.8851
            2          22      0.0333      0.1400   1423.1441    703.0000     50.0319
            2          23      0.0333      0.1467   1426.0532    703.0000     50.2004
            2          24      0.0333      0.1533   1429.3043    703.0000     50.3899
            2          25      0.0333      0.1600   1432.8797    703.0000     50.5998
            2          26      0.0333      0.1667   1436.7599    703.0000     50.8293
            2          27      0.0333      0.1733   1440.9244    703.0000     51.0776
            2          28      0.0333      0.1800   1445.3515    703.0000     51.3438
            2          29      0.0333      0.1867   1450.0190    703.0000     51.6269
            2          30      0.0333      0.1933   1454.9038    703.0000     51.9260
            2          31      0.0333      0.2000   1459.9825    703.0000     52.2399
            3           1      0.0667      0.0000   1434.2973    703.0000     50.6834
            3           2      0.0667      0.0067   1428.1718    703.0000     50.3237
            3           3      0.0667      0.0133   1422.3476    703.0000     49.9860
            3           4      0.0667      0.0200   1416.8556    703.0000     49.6713
            3           5      0.0667      0.0267   1411.7254    703.0000     49.3807
            3           6      0.0667      0.0333   1406.9854    703.0000     49.1152
            3           7      0.0667      0.0400   1402.6625    703.0000     48.8754
            3           8      0.0667      0.0467   1398.7812    703.0000     48.6622
            3           9      0.0667      0.0533   1395.3641    703.0000     48.4760
            3          10      0.0667      0.0600   1392.4310    703.0000     48.3174
            3          11      0.0667      0.0667   1389.9991    703.0000     48.1868
            3          12      0.0667      0.0733   1388.0827    703.0000     48.0843
            3          13      0.0667      0.0800   1386.6928    703.0000     48.0103
            3          14      0.0667      0.0867   1385.8374    703.0000     47.9649
            3          15      0.0667      0.0933   1385.5212    703.0000     47.9482
            3          16      0.0667      0.1000   1385.7453    703.0000     47.9600
            3          17      0.0667      0.1067   1386.5079    703.0000     48.0005
            3          18      0.0667      0.1133   1387.8035    703.0000     48.0695
            3          19      0.0667      0.1200   1389.6237    703.0000     48.1667
            3          20      0.0667      0.1267   1391.9566    703.0000     48.2919
            3          21      0.0667      0.1333   1394.7877    703.0000     48.4448
            3          22      0.0667      0.1400   1398.0994    703.0000     48.6249
            3          23      0.0667      0.1467   1401.8715    703.0000     48.8318
            3          24      0.0667      0.1533   1406.0816    703.0000     49.0649
            3          25      0.0667      0.1600   1410.7049    703.0000     49.3233
            3          26      0.0667      0.1667   1415.7149    703.0000     49.6064
            3          27      0.0667      0.1733   1421.0835    703.0000     49.9132
            3          28      0.0667      0.1800   1426.7812    703.0000     50.2427
            3          29      0.0667      0.1867   1432.7776    703.0000     50.5937
            3          30      0.0667      0.1933   1439.0416    703.0000     50.9650
            3          31      0.0667      0.2000   1445.5419    703.0000     51.3553
            4           1      0.1000      0.0000   1418.7089    703.0000     49.7771
            4           2      0.1000      0.0067   1411.3475    703.0000     49.3595
            4           3      0.1000      0.0133   1404.3382    703.0000     48.9681
            4           4      0.1000      0.0200   1397.7199    703.0000     48.6042
            4           5      0.1000      0.0267   1391.5305    703.0000     48.2690
            4           6      0.1000      0.0333   1385.8060    703.0000     47.9633
            4           7      0.1000      0.0400   1380.5806    703.0000     47.6879
            4           8      0.1000      0.0467   1375.8859    703.0000     47.4436
            4           9      0.1000      0.0533   1371.7507    703.0000     47.2307
            4          10      0.1000      0.0600   1368.2006    703.0000     47.0498
            4          11      0.1000      0.0667   1365.2576    703.0000     46.9011
            4          12      0.1000      0.0733   1362.9401    703.0000     46.7848
            4          13      0.1000      0.0800   1361.2624    703.0000     46.7010
            4          14      0.1000      0.0867   1360.2345    703.0000     46.6499
            4          15      0.1000      0.0933   1359.8626    703.0000     46.6315
            4          16      0.1000      0.1000   1360.1481    703.0000     46.6456
            4          17      0.1000      0.1067   1361.0885    703.0000     46.6924
            4          18      0.1000      0.1133   1362.6767    703.0000     46.7716
            4          19      0.1000      0.1200   1364.9017    703.0000     46.8832
            4          20      0.1000      0.1267   1367.7483    703.0000     47.0269
            4          21      0.1000      0.1333   1371.1976    703.0000     47.2024
            4          22      0.1000      0.1400   1375.2269    703.0000     47.4095
            4          23      0.1000      0.1467   1379.8103    703.0000     47.6476
            4          24      0.1000      0.1533   1384.9190    703.0000     47.9163
            4          25      0.1000      0.1600   1390.5212    703.0000     48.2148
            4          26      0.1000      0.1667   1396.5831    703.0000     48.5423
            4          27      0.1000      0.1733   1403.0689    703.0000     48.8979
            4          28      0.1000      0.1800   1409.9413    703.0000     49.2805
            4          29      0.1000      0.1867   1417.1619    703.0000     49.6888
            4          30      0.1000      0.1933   1424.6917    703.0000     50.1214
            4          31      0.1000      0.2000   1432.4916    703.0000     50.5769
            5           1      0.1333      0.0000   1404.8651    703.0000     48.9973
            5           2      0.1333      0.0067   1396.4016    703.0000     48.5324
            5           3      0.1333      0.0133   1388.3339    703.0000     48.0977
            5           4      0.1333      0.0200   1380.7085    703.0000     47.6946
            5           5      0.1333      0.0267   1373.5707    703.0000     47.3241
            5           6      0.1333      0.0333   1366.9640    703.0000     46.9872
            5           7      0.1333      0.0400   1360.9295    703.0000     46.6845
            5           8      0.1333      0.0467   1355.5055    703.0000     46.4165
            5           9      0.1333      0.0533   1350.7268    703.0000     46.1838
            5          10      0.1333      0.0600   1346.6242    703.0000     45.9864
            5          11      0.1333      0.0667   1343.2246    703.0000     45.8245
            5          12      0.1333      0.0733   1340.5499    703.0000     45.6983
            5          13      0.1333      0.0800   1338.6176    703.0000     45.6077
            5          14      0.1333      0.0867   1337.4399    703.0000     45.5528
            5          15      0.1333      0.0933   1337.0239    703.0000     45.5334
            5          16      0.1333      0.1000   1337.3714    703.0000     45.5496
            5          17      0.1333      0.1067   1338.4791    703.0000     45.6013
            5          18      0.1333      0.1133   1340.3383    703.0000     45.6884
            5          19      0.1333      0.1200   1342.9356    703.0000     45.8108
            5          20      0.1333      0.1267   1346.2523    703.0000     45.9686
            5          21      0.1333      0.1333   1350.2654    703.0000     46.1614
            5          22      0.1333      0.1400   1354.9474    703.0000     46.3892
            5          23      0.1333      0.1467   1360.2667    703.0000     46.6515
            5          24      0.1333      0.1533   1366.1884    703.0000     46.9480
            5          25      0.1333      0.1600   1372.6740    703.0000     47.2781
            5          26      0.1333      0.1667   1379.6828    703.0000     47.6410
            5          27      0.1333      0.1733   1387.1716    703.0000     48.0358
            5          28      0.1333      0.1800   1395.0957    703.0000     48.4615
            5          29      0.1333      0.1867   1403.4092    703.0000     48.9167
            5          30      0.1333      0.1933   1412.0658    703.0000     49.3999
            5          31      0.1333      0.2000   1421.0190    703.0000     49.9095
            6           1      0.1667      0.0000   1392.8883    703.0000     48.3421
            6           2      0.1667      0.0067   1383.4691    703.0000     47.8397
            6           3      0.1667      0.0133   1374.4825    703.0000     47.3711
            6           4      0.1667      0.0200   1365.9821    703.0000     46.9376
            6           5      0.1667      0.0267   1358.0199    703.0000     46.5403
            6           6      0.1667      0.0333   1350.6461    703.0000     46.1798
            6           7      0.1667      0.0400   1343.9082    703.0000     45.8569
            6           8      0.1667      0.0467   1337.8503    703.0000     45.5719
            6           9      0.1667      0.0533   1332.5127    703.0000     45.3249
            6          10      0.1667      0.0600   1327.9311    703.0000     45.1161
            6          11      0.1667      0.0667   1324.1364    703.0000     44.9453
            6          12      0.1667      0.0733   1321.1540    703.0000     44.8124
            6          13      0.1667      0.0800   1319.0040    703.0000     44.7174
            6          14      0.1667      0.0867   1317.7003    703.0000     44.6601
            6          15      0.1667      0.0933   1317.2510    703.0000     44.6405
            6          16      0.1667      0.1000   1317.6582    703.0000     44.6583
            6          17      0.1667      0.1067   1318.9177    703.0000     44.7136
            6          18      0.1667      0.1133   1321.0195    703.0000     44.8065
            6          19      0.1667      0.1200   1323.9476    703.0000     44.9368
            6          20      0.1667      0.1267   1327.6805    703.0000     45.1047
            6          21      0.1667      0.1333   1332.1912    703.0000     45.3102
            6          22      0.1667      0.1400   1337.4478    703.0000     45.5531
            6          23      0.1667      0.1467   1343.4136    703.0000     45.8335
            6          24      0.1667      0.1533   1350.0479    703.0000     46.1509
            6          25      0.1667      0.1600   1357.3065    703.0000     46.5051
            6          26      0.1667      0.1667   1365.1421    703.0000     46.8953
            6          27      0.1667      0.1733   1373.5049    703.0000     47.3208
            6          28      0.1667      0.1800   1382.3435    703.0000     47.7804
            6          29      0.1667      0.1867   1391.6053    703.0000     48.2730
            6          30      0.1667      0.1933   1401.2372    703.0000     48.7969
            6          31      0.1667      0.2000   1411.1865    703.0000     49.3504
            7           1      0.2000      0.0000   1382.7882    703.0000     47.8038
            7           2      0.2000      0.0067   1372.5620    703.0000     47.2723
            7           3      0.2000      0.0133   1362.7992    703.0000     46.7777
            7           4      0.2000      0.0200   1353.5593    703.0000     46.3214
            7           5      0.2000      0.0267   1344.9003    703.0000     45.9041
            7           6      0.2000      0.0333   1336.8781    703.0000     45.5266
            7           7      0.2000      0.0400   1329.5459    703.0000     45.1893
            7           8      0.2000      0.0467   1322.9529    703.0000     44.8924
            7           9      0.2000      0.0533   1317.1439    703.0000     44.6358
            7          10      0.2000      0.0600   1312.1588    703.0000     44.4193
            7          11      0.2000      0.0667   1308.0322    703.0000     44.2428
            7          12      0.2000      0.0733   1304.7922    703.0000     44.1058
            7          13      0.2000      0.0800   1302.4612    703.0000     44.0082
            7          14      0.2000      0.0867   1301.0546    703.0000     43.9497
            7          15      0.2000      0.0933   1300.5813    703.0000     43.9301
            7          16      0.2000      0.1000   1301.0434    703.0000     43.9492
            7          17      0.2000      0.1067   1302.4361    703.0000     44.0072
            7          18      0.2000      0.1133   1304.7480    703.0000     44.1040
            7          19      0.2000      0.1200   1307.9611    703.0000     44.2397
            7          20      0.2000      0.1267   1312.0510    703.0000     44.4147
            7          21      0.2000      0.1333   1316.9875    703.0000     44.6289
            7          22      0.2000      0.1400   1322.7347    703.0000     44.8827
            7          23      0.2000      0.1467   1329.2516    703.0000     45.1760
            7          24      0.2000      0.1533   1336.4926    703.0000     45.5087
            7          25      0.2000      0.1600   1344.4080    703.0000     45.8807
            7          26      0.2000      0.1667   1352.9451    703.0000     46.2914
            7          27      0.2000      0.1733   1362.0483    703.0000     46.7402
            7          28      0.2000      0.1800   1371.6603    703.0000     47.2261
            7          29      0.2000      0.1867   1381.7228    703.0000     47.7478
            7          30      0.2000      0.1933   1392.1768    703.0000     48.3037
            7          31      0.2000      0.2000   1402.9640    703.0000     48.8921
            8           1      0.2333      0.0000   1374.4885    703.0000     47.3714
            8           2      0.2333      0.0067   1363.5990    703.0000     46.8178
            8           3      0.2333      0.0133   1353.1979    703.0000     46.3037
            8           4      0.2333      0.0200   1343.3498    703.0000     45.8305
            8           5      0.2333      0.0267   1334.1178    703.0000     45.3988
            8           6      0.2333      0.0333   1325.5626    703.0000     45.0092
            8           7      0.2333      0.0400   1317.7420    703.0000     44.6620
            8           8      0.2333      0.0467   1310.7095    703.0000     44.3570
            8           9      0.2333      0.0533   1304.5138    703.0000     44.0941
            8          10      0.2333      0.0600   1299.1983    703.0000     43.8729
            8          11      0.2333      0.0667   1294.8003    703.0000     43.6929
            8          12      0.2333      0.0733   1291.3506    703.0000     43.5536
            8          13      0.2333      0.0800   1288.8731    703.0000     43.4546
            8          14      0.2333      0.0867   1287.3846    703.0000     43.3956
            8          15      0.2333      0.0933   1286.8946    703.0000     43.3762
            8          16      0.2333      0.1000   1287.4051    703.0000     43.3964
            8          17      0.2333      0.1067   1288.9107    703.0000     43.4561
            8          18      0.2333      0.1133   1291.3990    703.0000     43.5555
            8          19      0.2333      0.1200   1294.8500    703.0000     43.6949
            8          20      0.2333      0.1267   1299.2372    703.0000     43.8745
            8          21      0.2333      0.1333   1304.5275    703.0000     44.0947
            8          22      0.2333      0.1400   1310.6816    703.0000     44.3558
            8          23      0.2333      0.1467   1317.6548    703.0000     44.6582
            8          24      0.2333      0.1533   1325.3974    703.0000     45.0018
            8          25      0.2333      0.1600   1333.8553    703.0000     45.3867
            8          26      0.2333      0.1667   1342.9711    703.0000     45.8125
            8          27      0.2333      0.1733   1352.6843    703.0000     46.2787
            8          28      0.2333      0.1800   1362.9328    703.0000     46.7844
            8          29      0.2333      0.1867   1373.6532    703.0000     47.3284
            8          30      0.2333      0.1933   1384.7820    703.0000     47.9090
            8          31      0.2333      0.2000   1396.2560    703.0000     48.5245
            9           1      0.2667      0.0000   1367.8475    703.0000     47.0319
            9           2      0.2667      0.0067   1356.4273    703.0000     46.4618
            9           3      0.2667      0.0133   1345.5154    703.0000     45.9334
            9           4      0.2667      0.0200   1335.1807    703.0000     45.4479
            9           5      0.2667      0.0267   1325.4902    703.0000     45.0060
            9           6      0.2667      0.0333   1316.5087    703.0000     44.6080
            9           7      0.2667      0.0400   1308.2975    703.0000     44.2540
            9           8      0.2667      0.0467   1300.9136    703.0000     43.9438
            9           9      0.2667      0.0533   1294.4090    703.0000     43.6770
            9          10      0.2667      0.0600   1288.8297    703.0000     43.4529
            9          11      0.2667      0.0667   1284.2155    703.0000     43.2709
            9          12      0.2667      0.0733   1280.5991    703.0000     43.1305
            9          13      0.2667      0.0800   1278.0058    703.0000     43.0309
            9          14      0.2667      0.0867   1276.4535    703.0000     42.9718
            9          15      0.2667      0.0933   1275.9521    703.0000     42.9527
            9          16      0.2667      0.1000   1276.5036    703.0000     42.9737
            9          17      0.2667      0.1067   1278.1022    703.0000     43.0346
            9          18      0.2667      0.1133   1280.7342    703.0000     43.1357
            9          19      0.2667      0.1200   1284.3784    703.0000     43.2773
            9          20      0.2667      0.1267   1289.0062    703.0000     43.4599
            9          21      0.2667      0.1333   1294.5821    703.0000     43.6840
            9          22      0.2667      0.1400   1301.0642    703.0000     43.9501
            9          23      0.2667      0.1467   1308.4048    703.0000     44.2586
            9          24      0.2667      0.1533   1316.5507    703.0000     44.6098
            9          25      0.2667      0.1600   1325.4442    703.0000     45.0039
            9          26      0.2667      0.1667   1335.0242    703.0000     45.4406
            9          27      0.2667      0.1733   1345.2263    703.0000     45.9196
            9          28      0.2667      0.1800   1355.9843    703.0000     46.4400
            9          29      0.2667      0.1867   1367.2310    703.0000     47.0007
            9          30      0.2667      0.1933   1378.8988    703.0000     47.6001
            9          31      0.2667      0.2000   1390.9210    703.0000     48.2362
           10           1      0.3000      0.0000   1362.6796    703.0000     46.7718
           10           2      0.3000      0.0067   1350.8464    703.0000     46.1895
           10           3      0.3000      0.0133   1339.5374    703.0000     45.6508
           10           4      0.3000      0.0200   1328.8242    703.0000     45.1565
           10           5      0.3000      0.0267   1318.7772    703.0000     44.7074
           10           6      0.3000      0.0333   1309.4642    703.0000     44.3037
           10           7      0.3000      0.0400   1300.9495    703.0000     43.9453
           10           8      0.3000      0.0467   1293.2928    703.0000     43.6318
           10           9      0.3000      0.0533   1286.5484    703.0000     43.3626
           10          10      0.3000      0.0600   1280.7648    703.0000     43.1369
           10          11      0.3000      0.0667   1275.9833    703.0000     42.9539
           10          12      0.3000      0.0733   1272.2382    703.0000     42.8129
           10          13      0.3000      0.0800   1269.5561    703.0000     42.7132
           10          14      0.3000      0.0867   1267.9554    703.0000     42.6542
           10          15      0.3000      0.0933   1267.4465    703.0000     42.6355
           10          16      0.3000      0.1000   1268.0313    703.0000     42.6570
           10          17      0.3000      0.1067   1269.7035    703.0000     42.7187
           10          18      0.3000      0.1133   1272.4488    703.0000     42.8208
           10          19      0.3000      0.1200   1276.2446    703.0000     42.9638
           10          20      0.3000      0.1267   1281.0609    703.0000     43.1483
           10          21      0.3000      0.1333   1286.8603    703.0000     43.3749
           10          22      0.3000      0.1400   1293.5989    703.0000     43.6442
           10          23      0.3000      0.1467   1301.2262    703.0000     43.9568
           10          24      0.3000      0.1533   1309.6868    703.0000     44.3133
           10          25      0.3000      0.1600   1318.9200    703.0000     44.7137
           10          26      0.3000      0.1667   1328.8616    703.0000     45.1582
           10          27      0.3000      0.1733   1339.4443    703.0000     45.6464
           10          28      0.3000      0.1800   1350.5987    703.0000     46.1776
           10          29      0.3000      0.1867   1362.2545    703.0000     46.7505
           10          30      0.3000      0.1933   1374.3412    703.0000     47.3638
           10          31      0.3000      0.2000   1386.7890    703.0000     48.0155
           11           1      0.3333      0.0000   1358.7754    703.0000     46.5776
           11           2      0.3333      0.0067   1346.6307    703.0000     45.9867
           11           3      0.3333      0.0133   1335.0218    703.0000     45.4405
           11           4      0.3333      0.0200   1324.0230    703.0000     44.9402
           11           5      0.3333      0.0267   1313.7072    703.0000     44.4862
           11           6      0.3333      0.0333   1304.1444    703.0000     44.0786
           11           7      0.3333      0.0400   1295.4010    703.0000     43.7173
           11           8      0.3333      0.0467   1287.5389    703.0000     43.4017
           11           9      0.3333      0.0533   1280.6143    703.0000     43.1311
           11          10      0.3333      0.0600   1274.6770    703.0000     42.9045
           11          11      0.3333      0.0667   1269.7700    703.0000     42.7211
           11          12      0.3333      0.0733   1265.9286    703.0000     42.5800
           11          13      0.3333      0.0800   1263.1802    703.0000     42.4803
           11          14      0.3333      0.0867   1261.5438    703.0000     42.4215
           11          15      0.3333      0.0933   1261.0299    703.0000     42.4031
           11          16      0.3333      0.1000   1261.6405    703.0000     42.4250
           11          17      0.3333      0.1067   1263.3689    703.0000     42.4871
           11          18      0.3333      0.1133   1266.2002    703.0000     42.5899
           11          19      0.3333      0.1200   1270.1110    703.0000     42.7337
           11          20      0.3333      0.1267   1275.0700    703.0000     42.9193
           11          21      0.3333      0.1333   1281.0386    703.0000     43.1474
           11          22      0.3333      0.1400   1287.9710    703.0000     43.4188
           11          23      0.3333      0.1467   1295.8153    703.0000     43.7342
           11          24      0.3333      0.1533   1304.5136    703.0000     44.0941
           11          25      0.3333      0.1600   1314.0034    703.0000     44.4990
           11          26      0.3333      0.1667   1324.2182    703.0000     44.9489
           11          27      0.3333      0.1733   1335.0883    703.0000     45.4436
           11          28      0.3333      0.1800   1346.5420    703.0000     45.9824
           11          29      0.3333      0.1867   1358.5066    703.0000     46.5643
           11          30      0.3333      0.1933   1370.9093    703.0000     47.1877
           11          31      0.3333      0.2000   1383.6781    703.0000     47.8507
           12           1      0.3667      0.0000   1355.9227    703.0000     46.4370
           12           2      0.3667      0.0067   1343.5503    703.0000     45.8400
           12           3      0.3667      0.0133   1331.7225    703.0000     45.2887
           12           4      0.3667      0.0200   1320.5155    703.0000     44.7841
           12           5      0.3667      0.0267   1310.0036    703.0000     44.3268
           12           6      0.3667      0.0333   1300.2588    703.0000     43.9167
           12           7      0.3667      0.0400   1291.3489    703.0000     43.5535
           12           8      0.3667      0.0467   1283.3374    703.0000     43.2367
           12           9      0.3667      0.0533   1276.2817    703.0000     42.9652
           12          10      0.3667      0.0600   1270.2329    703.0000     42.7383
           12          11      0.3667      0.0667   1265.2348    703.0000     42.5547
           12          12      0.3667      0.0733   1261.3237    703.0000     42.4136
           12          13      0.3667      0.0800   1258.5273    703.0000     42.3141
           12          14      0.3667      0.0867   1256.8652    703.0000     42.2555
           12          15      0.3667      0.0933   1256.3481    703.0000     42.2374
           12          16      0.3667      0.1000   1256.9778    703.0000     42.2595
           12          17      0.3667      0.1067   1258.7475    703.0000     42.3219
           12          18      0.3667      0.1133   1261.6417    703.0000     42.4250
           12          19      0.3667      0.1200   1265.6364    703.0000     42.5693
           12          20      0.3667      0.1267   1270.6997    703.0000     42.7556
           12          21      0.3667      0.1333   1276.7918    703.0000     42.9846
           12          22      0.3667      0.1400   1283.8658    703.0000     43.2573
           12          23      0.3667      0.1467   1291.8683    703.0000     43.5744
           12          24      0.3667      0.1533   1300.7402    703.0000     43.9367
           12          25      0.3667      0.1600   1310.4174    703.0000     44.3445
           12          26      0.3667      0.1667   1320.8316    703.0000     44.7981
           12          27      0.3667      0.1733   1331.9114    703.0000     45.2973
           12          28      0.3667      0.1800   1343.5836    703.0000     45.8415
           12          29      0.3667      0.1867   1355.7736    703.0000     46.4297
           12          30      0.3667      0.1933   1368.4070    703.0000     47.0603
           12          31      0.3667      0.2000   1381.4102    703.0000     47.7314
           13           1      0.4000      0.0000   1353.9251    703.0000     46.3392
           13           2      0.4000      0.0067   1341.3934    703.0000     45.7380
           13           3      0.4000      0.0133   1329.4126    703.0000     45.1833
           13           4      0.4000      0.0200   1318.0599    703.0000     44.6759
           13           5      0.4000      0.0267   1307.4111    703.0000     44.2164
           13           6      0.4000      0.0333   1297.5392    703.0000     43.8047
           13           7      0.4000      0.0400   1288.5132    703.0000     43.4403
           13           8      0.4000      0.0467   1280.3974    703.0000     43.1227
           13           9      0.4000      0.0533   1273.2504    703.0000     42.8508
           13          10      0.4000      0.0600   1267.1239    703.0000     42.6237
           13          11      0.4000      0.0667   1262.0626    703.0000     42.4401
           13          12      0.4000      0.0733   1258.1030    703.0000     42.2991
           13          13      0.4000      0.0800   1255.2735    703.0000     42.1998
           13          14      0.4000      0.0867   1253.5938    703.0000     42.1413
           13          15      0.4000      0.0933   1253.0746    703.0000     42.1234
           13          16      0.4000      0.1000   1253.7179    703.0000     42.1456
           13          17      0.4000      0.1067   1255.5166    703.0000     42.2082
           13          18      0.4000      0.1133   1258.4549    703.0000     42.3115
           13          19      0.4000      0.1200   1262.5084    703.0000     42.4561
           13          20      0.4000      0.1267   1267.6446    703.0000     42.6428
           13          21      0.4000      0.1333   1273.8229    703.0000     42.8723
           13          22      0.4000      0.1400   1280.9958    703.0000     43.1458
           13          23      0.4000      0.1467   1289.1090    703.0000     43.4640
           13          24      0.4000      0.1533   1298.1022    703.0000     43.8278
           13          25      0.4000      0.1600   1307.9103    703.0000     44.2376
           13          26      0.4000      0.1667   1318.4638    703.0000     44.6937
           13          27      0.4000      0.1733   1329.6904    703.0000     45.1959
           13          28      0.4000      0.1800   1341.5153    703.0000     45.7438
           13          29      0.4000      0.1867   1353.8629    703.0000     46.3362
           13          30      0.4000      0.1933   1366.6576    703.0000     46.9717
           13          31      0.4000      0.2000   1379.8247    703.0000     47.6484
           14           1      0.4333      0.0000   1352.6192    703.0000     46.2756
           14           2      0.4333      0.0067   1339.9835    703.0000     45.6717
           14           3      0.4333      0.0133   1327.9027    703.0000     45.1148
           14           4      0.4333      0.0200   1316.4550    703.0000     44.6056
           14           5      0.4333      0.0267   1305.7168    703.0000     44.1447
           14           6      0.4333      0.0333   1295.7619    703.0000     43.7320
           14           7      0.4333      0.0400   1286.6602    703.0000     43.3670
           14           8      0.4333      0.0467   1278.4766    703.0000     43.0489
           14           9      0.4333      0.0533   1271.2702    703.0000     42.7768
           14          10      0.4333      0.0600   1265.0932    703.0000     42.5496
           14          11      0.4333      0.0667   1259.9908    703.0000     42.3661
           14          12      0.4333      0.0733   1255.9999    703.0000     42.2252
           14          13      0.4333      0.0800   1253.1490    703.0000     42.1259
           14          14      0.4333      0.0867   1251.4580    703.0000     42.0676
           14          15      0.4333      0.0933   1250.9377    703.0000     42.0498
           14          16      0.4333      0.1000   1251.5899    703.0000     42.0722
           14          17      0.4333      0.1067   1253.4077    703.0000     42.1349
           14          18      0.4333      0.1133   1256.3748    703.0000     42.2383
           14          19      0.4333      0.1200   1260.4667    703.0000     42.3830
           14          20      0.4333      0.1267   1265.6505    703.0000     42.5698
           14          21      0.4333      0.1333   1271.8851    703.0000     42.7997
           14          22      0.4333      0.1400   1279.1226    703.0000     43.0737
           14          23      0.4333      0.1467   1287.3079    703.0000     43.3926
           14          24      0.4333      0.1533   1296.3802    703.0000     43.7572
           14          25      0.4333      0.1600   1306.2737    703.0000     44.1682
           14          26      0.4333      0.1667   1316.9182    703.0000     44.6259
           14          27      0.4333      0.1733   1328.2404    703.0000     45.1301
           14          28      0.4333      0.1800   1340.1651    703.0000     45.6802
           14          29      0.4333      0.1867   1352.6156    703.0000     46.2754
           14          30      0.4333      0.1933   1365.5156    703.0000     46.9141
           14          31      0.4333      0.2000   1378.7898    703.0000     47.5944
           15           1      0.4667      0.0000   1351.8847    703.0000     46.2399
           15           2      0.4667      0.0067   1339.1905    703.0000     45.6345
           15           3      0.4667      0.0133   1327.0535    703.0000     45.0764
           15           4      0.4667      0.0200   1315.5523    703.0000     44.5663
           15           5      0.4667      0.0267   1304.7640    703.0000     44.1046
           15           6      0.4667      0.0333   1294.7626    703.0000     43.6913
           15           7      0.4667      0.0400   1285.6184    703.0000     43.3259
           15           8      0.4667      0.0467   1277.3967    703.0000     43.0077
           15           9      0.4667      0.0533   1270.1570    703.0000     42.7354
           15          10      0.4667      0.0600   1263.9518    703.0000     42.5082
           15          11      0.4667      0.0667   1258.8264    703.0000     42.3247
           15          12      0.4667      0.0733   1254.8179    703.0000     42.1839
           15          13      0.4667      0.0800   1251.9551    703.0000     42.0847
           15          14      0.4667      0.0867   1250.2578    703.0000     42.0265
           15          15      0.4667      0.0933   1249.7369    703.0000     42.0087
           15          16      0.4667      0.1000   1250.3942    703.0000     42.0312
           15          17      0.4667      0.1067   1252.2227    703.0000     42.0939
           15          18      0.4667      0.1133   1255.2061    703.0000     42.1974
           15          19      0.4667      0.1200   1259.3196    703.0000     42.3422
           15          20      0.4667      0.1267   1264.5300    703.0000     42.5291
           15          21      0.4667      0.1333   1270.7963    703.0000     42.7592
           15          22      0.4667      0.1400   1278.0700    703.0000     43.0334
           15          23      0.4667      0.1467   1286.2958    703.0000     43.3526
           15          24      0.4667      0.1533   1295.4126    703.0000     43.7178
           15          25      0.4667      0.1600   1305.3540    703.0000     44.1295
           15          26      0.4667      0.1667   1316.0496    703.0000     44.5880
           15          27      0.4667      0.1733   1327.4256    703.0000     45.0932
           15          28      0.4667      0.1800   1339.4062    703.0000     45.6446
           15          29      0.4667      0.1867   1351.9146    703.0000     46.2413
           15          30      0.4667      0.1933   1364.8738    703.0000     46.8818
           15          31      0.4667      0.2000   1378.2082    703.0000     47.5641
           16           1      0.5000      0.0000   1351.6479    703.0000     46.2284
           16           2      0.5000      0.0067   1338.9349    703.0000     45.6226
           16           3      0.5000      0.0133   1326.7798    703.0000     45.0640
           16           4      0.5000      0.0200   1315.2614    703.0000     44.5536
           16           5      0.5000      0.0267   1304.4569    703.0000     44.0917
           16           6      0.5000      0.0333   1294.4405    703.0000     43.6783
           16           7      0.5000      0.0400   1285.2826    703.0000     43.3128
           16           8      0.5000      0.0467   1277.0487    703.0000     42.9944
           16           9      0.5000      0.0533   1269.7983    703.0000     42.7222
           16          10      0.5000      0.0600   1263.5840    703.0000     42.4949
           16          11      0.5000      0.0667   1258.4512    703.0000     42.3114
           16          12      0.5000      0.0733   1254.4371    703.0000     42.1706
           16          13      0.5000      0.0800   1251.5705    703.0000     42.0715
           16          14      0.5000      0.0867   1249.8711    703.0000     42.0133
           16          15      0.5000      0.0933   1249.3500    703.0000     41.9956
           16          16      0.5000      0.1000   1250.0091    703.0000     42.0180
           16          17      0.5000      0.1067   1251.8410    703.0000     42.0808
           16          18      0.5000      0.1133   1254.8296    703.0000     42.1843
           16          19      0.5000      0.1200   1258.9500    703.0000     42.3291
           16          20      0.5000      0.1267   1264.1691    703.0000     42.5161
           16          21      0.5000      0.1333   1270.4456    703.0000     42.7462
           16          22      0.5000      0.1400   1277.7309    703.0000     43.0204
           16          23      0.5000      0.1467   1285.9698    703.0000     43.3398
           16          24      0.5000      0.1533   1295.1008    703.0000     43.7051
           16          25      0.5000      0.1600   1305.0577    703.0000     44.1170
           16          26      0.5000      0.1667   1315.7697    703.0000     44.5758
           16          27      0.5000      0.1733   1327.1630    703.0000     45.0813
           16          28      0.5000      0.1800   1339.1617    703.0000     45.6332
           16          29      0.5000      0.1867   1351.6887    703.0000     46.2304
           16          30      0.5000      0.1933   1364.6670    703.0000     46.8714
           16          31      0.5000      0.2000   1378.0208    703.0000     47.5543
           17           1      0.5333      0.0000   1351.8842    703.0000     46.2399
           17           2      0.5333      0.0067   1339.1900    703.0000     45.6345
           17           3      0.5333      0.0133   1327.0530    703.0000     45.0764
           17           4      0.5333      0.0200   1315.5518    703.0000     44.5663
           17           5      0.5333      0.0267   1304.7634    703.0000     44.1046
           17           6      0.5333      0.0333   1294.7620    703.0000     43.6913
           17           7      0.5333      0.0400   1285.6177    703.0000     43.3259
           17           8      0.5333      0.0467   1277.3961    703.0000     43.0076
           17           9      0.5333      0.0533   1270.1563    703.0000     42.7354
           17          10      0.5333      0.0600   1263.9511    703.0000     42.5082
           17          11      0.5333      0.0667   1258.8257    703.0000     42.3247
           17          12      0.5333      0.0733   1254.8172    703.0000     42.1838
           17          13      0.5333      0.0800   1251.9544    703.0000     42.0847
           17          14      0.5333      0.0867   1250.2571    703.0000     42.0265
           17          15      0.5333      0.0933   1249.7362    703.0000     42.0087
           17          16      0.5333      0.1000   1250.3935    703.0000     42.0312
           17          17      0.5333      0.1067   1252.2220    703.0000     42.0939
           17          18      0.5333      0.1133   1255.2054    703.0000     42.1974
           17          19      0.5333      0.1200   1259.3189    703.0000     42.3422
           17          20      0.5333      0.1267   1264.5294    703.0000     42.5291
           17          21      0.5333      0.1333   1270.7957    703.0000     42.7592
           17          22      0.5333      0.1400   1278.0694    703.0000     43.0333
           17          23      0.5333      0.1467   1286.2952    703.0000     43.3526
           17          24      0.5333      0.1533   1295.4120    703.0000     43.7177
           17          25      0.5333      0.1600   1305.3535    703.0000     44.1294
           17          26      0.5333      0.1667   1316.0491    703.0000     44.5879
           17          27      0.5333      0.1733   1327.4251    703.0000     45.0932
           17          28      0.5333      0.1800   1339.4058    703.0000     45.6446
           17          29      0.5333      0.1867   1351.9142    703.0000     46.2413
           17          30      0.5333      0.1933   1364.8734    703.0000     46.8818
           17          31      0.5333      0.2000   1378.2078    703.0000     47.5641
           18           1      0.5667      0.0000   1352.6183    703.0000     46.2755
           18           2      0.5667      0.0067   1339.9825    703.0000     45.6717
           18           3      0.5667      0.0133   1327.9016    703.0000     45.1147
           18           4      0.5667      0.0200   1316.4538    703.0000     44.6056
           18           5      0.5667      0.0267   1305.7156    703.0000     44.1447
           18           6      0.5667      0.0333   1295.7607    703.0000     43.7319
           18           7      0.5667      0.0400   1286.6589    703.0000     43.3669
           18           8      0.5667      0.0467   1278.4752    703.0000     43.0489
           18           9      0.5667      0.0533   1271.2688    703.0000     42.7768
           18          10      0.5667      0.0600   1265.0918    703.0000     42.5495
           18          11      0.5667      0.0667   1259.9894    703.0000     42.3660
           18          12      0.5667      0.0733   1255.9984    703.0000     42.2251
           18          13      0.5667      0.0800   1253.1475    703.0000     42.1259
           18          14      0.5667      0.0867   1251.4565    703.0000     42.0676
           18          15      0.5667      0.0933   1250.9362    703.0000     42.0497
           18          16      0.5667      0.1000   1251.5884    703.0000     42.0721
           18          17      0.5667      0.1067   1253.4062    703.0000     42.1348
           18          18      0.5667      0.1133   1256.3733    703.0000     42.2382
           18          19      0.5667      0.1200   1260.4653    703.0000     42.3830
           18          20      0.5667      0.1267   1265.6491    703.0000     42.5698
           18          21      0.5667      0.1333   1271.8838    703.0000     42.7997
           18          22      0.5667      0.1400   1279.1213    703.0000     43.0736
           18          23      0.5667      0.1467   1287.3066    703.0000     43.3925
           18          24      0.5667      0.1533   1296.3790    703.0000     43.7572
           18          25      0.5667      0.1600   1306.2726    703.0000     44.1682
           18          26      0.5667      0.1667   1316.9171    703.0000     44.6258
           18          27      0.5667      0.1733   1328.2394    703.0000     45.1300
           18          28      0.5667      0.1800   1340.1641    703.0000     45.6802
           18          29      0.5667      0.1867   1352.6147    703.0000     46.2754
           18          30      0.5667      0.1933   1365.5148    703.0000     46.9141
           18          31      0.5667      0.2000   1378.7891    703.0000     47.5943
           19           1      0.6000      0.0000   1353.9236    703.0000     46.3391
           19           2      0.6000      0.0067   1341.3918    703.0000     45.7379
           19           3      0.6000      0.0133   1329.4109    703.0000     45.1832
           19           4      0.6000      0.0200   1318.0581    703.0000     44.6758
           19           5      0.6000      0.0267   1307.4092    703.0000     44.2163
           19           6      0.6000      0.0333   1297.5371    703.0000     43.8046
           19           7      0.6000      0.0400   1288.5111    703.0000     43.4402
           19           8      0.6000      0.0467   1280.3952    703.0000     43.1226
           19           9      0.6000      0.0533   1273.2481    703.0000     42.8507
           19          10      0.6000      0.0600   1267.1216    703.0000     42.6236
           19          11      0.6000      0.0667   1262.0602    703.0000     42.4400
           19          12      0.6000      0.0733   1258.1006    703.0000     42.2990
           19          13      0.6000      0.0800   1255.2711    703.0000     42.1997
           19          14      0.6000      0.0867   1253.5914    703.0000     42.1412
           19          15      0.6000      0.0933   1253.0722    703.0000     42.1233
           19          16      0.6000      0.1000   1253.7155    703.0000     42.1455
           19          17      0.6000      0.1067   1255.5142    703.0000     42.2082
           19          18      0.6000      0.1133   1258.4525    703.0000     42.3115
           19          19      0.6000      0.1200   1262.5061    703.0000     42.4560
           19          20      0.6000      0.1267   1267.6423    703.0000     42.6427
           19          21      0.6000      0.1333   1273.8207    703.0000     42.8723
           19          22      0.6000      0.1400   1280.9937    703.0000     43.1457
           19          23      0.6000      0.1467   1289.1069    703.0000     43.4639
           19          24      0.6000      0.1533   1298.1003    703.0000     43.8277
           19          25      0.6000      0.1600   1307.9084    703.0000     44.2375
           19          26      0.6000      0.1667   1318.4621    703.0000     44.6936
           19          27      0.6000      0.1733   1329.6887    703.0000     45.1958
           19          28      0.6000      0.1800   1341.5138    703.0000     45.7437
           19          29      0.6000      0.1867   1353.8615    703.0000     46.3361
           19          30      0.6000      0.1933   1366.6563    703.0000     46.9716
           19          31      0.6000      0.2000   1379.8236    703.0000     47.6483
           20           1      0.6333      0.0000   1355.9205    703.0000     46.4369
           20           2      0.6333      0.0067   1343.5479    703.0000     45.8399
           20           3      0.6333      0.0133   1331.7200    703.0000     45.2886
           20           4      0.6333      0.0200   1320.5128    703.0000     44.7840
           20           5      0.6333      0.0267   1310.0008    703.0000     44.3267
           20           6      0.6333      0.0333   1300.2558    703.0000     43.9166
           20           7      0.6333      0.0400   1291.3458    703.0000     43.5534
           20           8      0.6333      0.0467   1283.3342    703.0000     43.2365
           20           9      0.6333      0.0533   1276.2783    703.0000     42.9651
           20          10      0.6333      0.0600   1270.2294    703.0000     42.7381
           20          11      0.6333      0.0667   1265.2313    703.0000     42.5546
           20          12      0.6333      0.0733   1261.3201    703.0000     42.4135
           20          13      0.6333      0.0800   1258.5238    703.0000     42.3140
           20          14      0.6333      0.0867   1256.8616    703.0000     42.2554
           20          15      0.6333      0.0933   1256.3445    703.0000     42.2372
           20          16      0.6333      0.1000   1256.9742    703.0000     42.2593
           20          17      0.6333      0.1067   1258.7439    703.0000     42.3218
           20          18      0.6333      0.1133   1261.6382    703.0000     42.4249
           20          19      0.6333      0.1200   1265.6330    703.0000     42.5692
           20          20      0.6333      0.1267   1270.6964    703.0000     42.7555
           20          21      0.6333      0.1333   1276.7885    703.0000     42.9845
           20          22      0.6333      0.1400   1283.8626    703.0000     43.2572
           20          23      0.6333      0.1467   1291.8653    703.0000     43.5743
           20          24      0.6333      0.1533   1300.7373    703.0000     43.9365
           20          25      0.6333      0.1600   1310.4146    703.0000     44.3444
           20          26      0.6333      0.1667   1320.8290    703.0000     44.7980
           20          27      0.6333      0.1733   1331.9090    703.0000     45.2972
           20          28      0.6333      0.1800   1343.5813    703.0000     45.8414
           20          29      0.6333      0.1867   1355.7715    703.0000     46.4296
           20          30      0.6333      0.1933   1368.4050    703.0000     47.0602
           20          31      0.6333      0.2000   1381.4084    703.0000     47.7313
           21           1      0.6667      0.0000   1358.7724    703.0000     46.5774
           21           2      0.6667      0.0067   1346.6273    703.0000     45.9865
           21           3      0.6667      0.0133   1335.0182    703.0000     45.4404
           21           4      0.6667      0.0200   1324.0192    703.0000     44.9400
           21           5      0.6667      0.0267   1313.7032    703.0000     44.4860
           21           6      0.6667      0.0333   1304.1402    703.0000     44.0784
           21           7      0.6667      0.0400   1295.3966    703.0000     43.7171
           21           8      0.6667      0.0467   1287.5344    703.0000     43.4015
           21           9      0.6667      0.0533   1280.6096    703.0000     43.1309
           21          10      0.6667      0.0600   1274.6722    703.0000     42.9043
           21          11      0.6667      0.0667   1269.7651    703.0000     42.7209
           21          12      0.6667      0.0733   1265.9236    703.0000     42.5798
           21          13      0.6667      0.0800   1263.1752    703.0000     42.4801
           21          14      0.6667      0.0867   1261.5387    703.0000     42.4213
           21          15      0.6667      0.0933   1261.0248    703.0000     42.4029
           21          16      0.6667      0.1000   1261.6354    703.0000     42.4248
           21          17      0.6667      0.1067   1263.3639    703.0000     42.4869
           21          18      0.6667      0.1133   1266.1953    703.0000     42.5897
           21          19      0.6667      0.1200   1270.1061    703.0000     42.7336
           21          20      0.6667      0.1267   1275.0653    703.0000     42.9192
           21          21      0.6667      0.1333   1281.0340    703.0000     43.1473
           21          22      0.6667      0.1400   1287.9666    703.0000     43.4186
           21          23      0.6667      0.1467   1295.8110    703.0000     43.7340
           21          24      0.6667      0.1533   1304.5095    703.0000     44.0939
           21          25      0.6667      0.1600   1313.9995    703.0000     44.4988
           21          26      0.6667      0.1667   1324.2145    703.0000     44.9488
           21          27      0.6667      0.1733   1335.0848    703.0000     45.4435
           21          28      0.6667      0.1800   1346.5388    703.0000     45.9823
           21          29      0.6667      0.1867   1358.5036    703.0000     46.5642
           21          30      0.6667      0.1933   1370.9066    703.0000     47.1876
           21          31      0.6667      0.2000   1383.6757    703.0000     47.8506
           22           1      0.7000      0.0000   1362.6753    703.0000     46.7716
           22           2      0.7000      0.0067   1350.8419    703.0000     46.1893
           22           3      0.7000      0.0133   1339.5325    703.0000     45.6506
           22           4      0.7000      0.0200   1328.8190    703.0000     45.1563
           22           5      0.7000      0.0267   1318.7717    703.0000     44.7072
           22           6      0.7000      0.0333   1309.4585    703.0000     44.3035
           22           7      0.7000      0.0400   1300.9435    703.0000     43.9451
           22           8      0.7000      0.0467   1293.2866    703.0000     43.6316
           22           9      0.7000      0.0533   1286.5421    703.0000     43.3623
           22          10      0.7000      0.0600   1280.7582    703.0000     43.1366
           22          11      0.7000      0.0667   1275.9766    703.0000     42.9537
           22          12      0.7000      0.0733   1272.2314    703.0000     42.8127
           22          13      0.7000      0.0800   1269.5492    703.0000     42.7129
           22          14      0.7000      0.0867   1267.9485    703.0000     42.6539
           22          15      0.7000      0.0933   1267.4395    703.0000     42.6352
           22          16      0.7000      0.1000   1268.0244    703.0000     42.6567
           22          17      0.7000      0.1067   1269.6967    703.0000     42.7184
           22          18      0.7000      0.1133   1272.4421    703.0000     42.8205
           22          19      0.7000      0.1200   1276.2380    703.0000     42.9636
           22          20      0.7000      0.1267   1281.0544    703.0000     43.1481
           22          21      0.7000      0.1333   1286.8541    703.0000     43.3746
           22          22      0.7000      0.1400   1293.5928    703.0000     43.6439
           22          23      0.7000      0.1467   1301.2204    703.0000     43.9566
           22          24      0.7000      0.1533   1309.6812    703.0000     44.3130
           22          25      0.7000      0.1600   1318.9147    703.0000     44.7135
           22          26      0.7000      0.1667   1328.8565    703.0000     45.1580
           22          27      0.7000      0.1733   1339.4395    703.0000     45.6462
           22          28      0.7000      0.1800   1350.5943    703.0000     46.1773
           22          29      0.7000      0.1867   1362.2504    703.0000     46.7503
           22          30      0.7000      0.1933   1374.3375    703.0000     47.3636
           22          31      0.7000      0.2000   1386.7856    703.0000     48.0153
           23           1      0.7333      0.0000   1367.8420    703.0000     47.0316
           23           2      0.7333      0.0067   1356.4212    703.0000     46.4615
           23           3      0.7333      0.0133   1345.5090    703.0000     45.9331
           23           4      0.7333      0.0200   1335.1738    703.0000     45.4476
           23           5      0.7333      0.0267   1325.4829    703.0000     45.0056
           23           6      0.7333      0.0333   1316.5011    703.0000     44.6077
           23           7      0.7333      0.0400   1308.2895    703.0000     44.2537
           23           8      0.7333      0.0467   1300.9054    703.0000     43.9435
           23           9      0.7333      0.0533   1294.4005    703.0000     43.6766
           23          10      0.7333      0.0600   1288.8210    703.0000     43.4526
           23          11      0.7333      0.0667   1284.2066    703.0000     43.2706
           23          12      0.7333      0.0733   1280.5900    703.0000     43.1301
           23          13      0.7333      0.0800   1277.9967    703.0000     43.0306
           23          14      0.7333      0.0867   1276.4443    703.0000     42.9714
           23          15      0.7333      0.0933   1275.9429    703.0000     42.9524
           23          16      0.7333      0.1000   1276.4945    703.0000     42.9733
           23          17      0.7333      0.1067   1278.0931    703.0000     43.0342
           23          18      0.7333      0.1133   1280.7253    703.0000     43.1353
           23          19      0.7333      0.1200   1284.3696    703.0000     43.2770
           23          20      0.7333      0.1267   1288.9976    703.0000     43.4596
           23          21      0.7333      0.1333   1294.5737    703.0000     43.6837
           23          22      0.7333      0.1400   1301.0562    703.0000     43.9498
           23          23      0.7333      0.1467   1308.3970    703.0000     44.2583
           23          24      0.7333      0.1533   1316.5432    703.0000     44.6095
           23          25      0.7333      0.1600   1325.4372    703.0000     45.0036
           23          26      0.7333      0.1667   1335.0175    703.0000     45.4403
           23          27      0.7333      0.1733   1345.2200    703.0000     45.9193
           23          28      0.7333      0.1800   1355.9785    703.0000     46.4397
           23          29      0.7333      0.1867   1367.2256    703.0000     47.0004
           23          30      0.7333      0.1933   1378.8938    703.0000     47.5998
           23          31      0.7333      0.2000   1390.9165    703.0000     48.2360
           24           1      0.7667      0.0000   1374.4813    703.0000     47.3710
           24           2      0.7667      0.0067   1363.5912    703.0000     46.8174
           24           3      0.7667      0.0133   1353.1895    703.0000     46.3033
           24           4      0.7667      0.0200   1343.3409    703.0000     45.8300
           24           5      0.7667      0.0267   1334.1084    703.0000     45.3983
           24           6      0.7667      0.0333   1325.5528    703.0000     45.0088
           24           7      0.7667      0.0400   1317.7317    703.0000     44.6615
           24           8      0.7667      0.0467   1310.6988    703.0000     44.3566
           24           9      0.7667      0.0533   1304.5028    703.0000     44.0937
           24          10      0.7667      0.0600   1299.1870    703.0000     43.8724
           24          11      0.7667      0.0667   1294.7888    703.0000     43.6924
           24          12      0.7667      0.0733   1291.3389    703.0000     43.5531
           24          13      0.7667      0.0800   1288.8613    703.0000     43.4542
           24          14      0.7667      0.0867   1287.3727    703.0000     43.3951
           24          15      0.7667      0.0933   1286.8827    703.0000     43.3758
           24          16      0.7667      0.1000   1287.3932    703.0000     43.3959
           24          17      0.7667      0.1067   1288.8990    703.0000     43.4557
           24          18      0.7667      0.1133   1291.3874    703.0000     43.5551
           24          19      0.7667      0.1200   1294.8386    703.0000     43.6944
           24          20      0.7667      0.1267   1299.2261    703.0000     43.8740
           24          21      0.7667      0.1333   1304.5166    703.0000     44.0942
           24          22      0.7667      0.1400   1310.6711    703.0000     44.3554
           24          23      0.7667      0.1467   1317.6447    703.0000     44.6577
           24          24      0.7667      0.1533   1325.3877    703.0000     45.0014
           24          25      0.7667      0.1600   1333.8461    703.0000     45.3863
           24          26      0.7667      0.1667   1342.9624    703.0000     45.8121
           24          27      0.7667      0.1733   1352.6762    703.0000     46.2783
           24          28      0.7667      0.1800   1362.9252    703.0000     46.7841
           24          29      0.7667      0.1867   1373.6462    703.0000     47.3280
           24          30      0.7667      0.1933   1384.7755    703.0000     47.9087
           24          31      0.7667      0.2000   1396.2502    703.0000     48.5242
           25           1      0.8000      0.0000   1382.7791    703.0000     47.8033
           25           2      0.8000      0.0067   1372.5522    703.0000     47.2718
           25           3      0.8000      0.0133   1362.7887    703.0000     46.7772
           25           4      0.8000      0.0200   1353.5480    703.0000     46.3208
           25           5      0.8000      0.0267   1344.8884    703.0000     45.9035
           25           6      0.8000      0.0333   1336.8657    703.0000     45.5261
           25           7      0.8000      0.0400   1329.5330    703.0000     45.1888
           25           8      0.8000      0.0467   1322.9394    703.0000     44.8918
           25           9      0.8000      0.0533   1317.1300    703.0000     44.6352
           25          10      0.8000      0.0600   1312.1446    703.0000     44.4187
           25          11      0.8000      0.0667   1308.0176    703.0000     44.2421
           25          12      0.8000      0.0733   1304.7775    703.0000     44.1052
           25          13      0.8000      0.0800   1302.4463    703.0000     44.0076
           25          14      0.8000      0.0867   1301.0396    703.0000     43.9491
           25          15      0.8000      0.0933   1300.5663    703.0000     43.9294
           25          16      0.8000      0.1000   1301.0284    703.0000     43.9486
           25          17      0.8000      0.1067   1302.4213    703.0000     44.0066
           25          18      0.8000      0.1133   1304.7333    703.0000     44.1033
           25          19      0.8000      0.1200   1307.9466    703.0000     44.2391
           25          20      0.8000      0.1267   1312.0369    703.0000     44.4141
           25          21      0.8000      0.1333   1316.9738    703.0000     44.6283
           25          22      0.8000      0.1400   1322.7215    703.0000     44.8821
           25          23      0.8000      0.1467   1329.2388    703.0000     45.1754
           25          24      0.8000      0.1533   1336.4803    703.0000     45.5081
           25          25      0.8000      0.1600   1344.3964    703.0000     45.8801
           25          26      0.8000      0.1667   1352.9341    703.0000     46.2909
           25          27      0.8000      0.1733   1362.0380    703.0000     46.7397
           25          28      0.8000      0.1800   1371.6507    703.0000     47.2256
           25          29      0.8000      0.1867   1381.7138    703.0000     47.7473
           25          30      0.8000      0.1933   1392.1686    703.0000     48.3033
           25          31      0.8000      0.2000   1402.9566    703.0000     48.8917
           26           1      0.8333      0.0000   1392.8771    703.0000     48.3415
           26           2      0.8333      0.0067   1383.4570    703.0000     47.8390
           26           3      0.8333      0.0133   1374.4696    703.0000     47.3704
           26           4      0.8333      0.0200   1365.9683    703.0000     46.9369
           26           5      0.8333      0.0267   1358.0053    703.0000     46.5395
           26           6      0.8333      0.0333   1350.6309    703.0000     46.1791
           26           7      0.8333      0.0400   1343.8923    703.0000     45.8562
           26           8      0.8333      0.0467   1337.8339    703.0000     45.5711
           26           9      0.8333      0.0533   1332.4957    703.0000     45.3241
           26          10      0.8333      0.0600   1327.9137    703.0000     45.1153
           26          11      0.8333      0.0667   1324.1186    703.0000     44.9445
           26          12      0.8333      0.0733   1321.1359    703.0000     44.8116
           26          13      0.8333      0.0800   1318.9856    703.0000     44.7166
           26          14      0.8333      0.0867   1317.6818    703.0000     44.6593
           26          15      0.8333      0.0933   1317.2325    703.0000     44.6397
           26          16      0.8333      0.1000   1317.6398    703.0000     44.6575
           26          17      0.8333      0.1067   1318.8994    703.0000     44.7128
           26          18      0.8333      0.1133   1321.0015    703.0000     44.8057
           26          19      0.8333      0.1200   1323.9299    703.0000     44.9360
           26          20      0.8333      0.1267   1327.6632    703.0000     45.1039
           26          21      0.8333      0.1333   1332.1744    703.0000     45.3094
           26          22      0.8333      0.1400   1337.4314    703.0000     45.5524
           26          23      0.8333      0.1467   1343.3978    703.0000     45.8327
           26          24      0.8333      0.1533   1350.0329    703.0000     46.1502
           26          25      0.8333      0.1600   1357.2922    703.0000     46.5044
           26          26      0.8333      0.1667   1365.1285    703.0000     46.8946
           26          27      0.8333      0.1733   1373.4922    703.0000     47.3201
           26          28      0.8333      0.1800   1382.3316    703.0000     47.7798
           26          29      0.8333      0.1867   1391.5943    703.0000     48.2724
           26          30      0.8333      0.1933   1401.2271    703.0000     48.7963
           26          31      0.8333      0.2000   1411.1773    703.0000     49.3499
           27           1      0.8667      0.0000   1404.8519    703.0000     48.9966
           27           2      0.8667      0.0067   1396.3873    703.0000     48.5316
           27           3      0.8667      0.0133   1388.3185    703.0000     48.0969
           27           4      0.8667      0.0200   1380.6921    703.0000     47.6938
           27           5      0.8667      0.0267   1373.5534    703.0000     47.3232
           27           6      0.8667      0.0333   1366.9459    703.0000     46.9863
           27           7      0.8667      0.0400   1360.9107    703.0000     46.6835
           27           8      0.8667      0.0467   1355.4860    703.0000     46.4156
           27           9      0.8667      0.0533   1350.7066    703.0000     46.1828
           27          10      0.8667      0.0600   1346.6035    703.0000     45.9854
           27          11      0.8667      0.0667   1343.2034    703.0000     45.8235
           27          12      0.8667      0.0733   1340.5285    703.0000     45.6973
           27          13      0.8667      0.0800   1338.5959    703.0000     45.6067
           27          14      0.8667      0.0867   1337.4181    703.0000     45.5518
           27          15      0.8667      0.0933   1337.0020    703.0000     45.5324
           27          16      0.8667      0.1000   1337.3496    703.0000     45.5486
           27          17      0.8667      0.1067   1338.4574    703.0000     45.6002
           27          18      0.8667      0.1133   1340.3169    703.0000     45.6874
           27          19      0.8667      0.1200   1342.9145    703.0000     45.8098
           27          20      0.8667      0.1267   1346.2317    703.0000     45.9676
           27          21      0.8667      0.1333   1350.2453    703.0000     46.1605
           27          22      0.8667      0.1400   1354.9279    703.0000     46.3882
           27          23      0.8667      0.1467   1360.2480    703.0000     46.6506
           27          24      0.8667      0.1533   1366.1704    703.0000     46.9471
           27          25      0.8667      0.1600   1372.6569    703.0000     47.2772
           27          26      0.8667      0.1667   1379.6666    703.0000     47.6401
           27          27      0.8667      0.1733   1387.1564    703.0000     48.0350
           27          28      0.8667      0.1800   1395.0815    703.0000     48.4607
           27          29      0.8667      0.1867   1403.3961    703.0000     48.9159
           27          30      0.8667      0.1933   1412.0537    703.0000     49.3992
           27          31      0.8667      0.2000   1421.0080    703.0000     49.9089
           28           1      0.9000      0.0000   1418.6937    703.0000     49.7762
           28           2      0.9000      0.0067   1411.3311    703.0000     49.3585
           28           3      0.9000      0.0133   1404.3206    703.0000     48.9671
           28           4      0.9000      0.0200   1397.7012    703.0000     48.6032
           28           5      0.9000      0.0267   1391.5107    703.0000     48.2679
           28           6      0.9000      0.0333   1385.7853    703.0000     47.9622
           28           7      0.9000      0.0400   1380.5590    703.0000     47.6868
           28           8      0.9000      0.0467   1375.8636    703.0000     47.4424
           28           9      0.9000      0.0533   1371.7277    703.0000     47.2296
           28          10      0.9000      0.0600   1368.1770    703.0000     47.0486
           28          11      0.9000      0.0667   1365.2335    703.0000     46.8999
           28          12      0.9000      0.0733   1362.9156    703.0000     46.7836
           28          13      0.9000      0.0800   1361.2375    703.0000     46.6998
           28          14      0.9000      0.0867   1360.2095    703.0000     46.6487
           28          15      0.9000      0.0933   1359.8375    703.0000     46.6302
           28          16      0.9000      0.1000   1360.1232    703.0000     46.6444
           28          17      0.9000      0.1067   1361.0637    703.0000     46.6912
           28          18      0.9000      0.1133   1362.6522    703.0000     46.7704
           28          19      0.9000      0.1200   1364.8776    703.0000     46.8820
           28          20      0.9000      0.1267   1367.7247    703.0000     47.0257
           28          21      0.9000      0.1333   1371.1746    703.0000     47.2013
           28          22      0.9000      0.1400   1375.2046    703.0000     47.4084
           28          23      0.9000      0.1467   1379.7888    703.0000     47.6465
           28          24      0.9000      0.1533   1384.8984    703.0000     47.9152
           28          25      0.9000      0.1600   1390.5016    703.0000     48.2137
           28          26      0.9000      0.1667   1396.5645    703.0000     48.5413
           28          27      0.9000      0.1733   1403.0514    703.0000     48.8969
           28          28      0.9000      0.1800   1409.9249    703.0000     49.2795
           28          29      0.9000      0.1867   1417.1467    703.0000     49.6879
           28          30      0.9000      0.1933   1424.6778    703.0000     50.1206
           28          31      0.9000      0.2000   1432.4789    703.0000     50.5762
           29           1      0.9333      0.0000   1434.2806    703.0000     50.6824
           29           2      0.9333      0.0067   1428.1538    703.0000     50.3227
           29           3      0.9333      0.0133   1422.3284    703.0000     49.9849
           29           4      0.9333      0.0200   1416.8351    703.0000     49.6702
           29           5      0.9333      0.0267   1411.7038    703.0000     49.3795
           29           6      0.9333      0.0333   1406.9628    703.0000     49.1139
           29           7      0.9333      0.0400   1402.6389    703.0000     48.8741
           29           8      0.9333      0.0467   1398.7567    703.0000     48.6608
           29           9      0.9333      0.0533   1395.3389    703.0000     48.4747
           29          10      0.9333      0.0600   1392.4051    703.0000     48.3160
           29          11      0.9333      0.0667   1389.9727    703.0000     48.1854
           29          12      0.9333      0.0733   1388.0558    703.0000     48.0829
           29          13      0.9333      0.0800   1386.6657    703.0000     48.0089
           29          14      0.9333      0.0867   1385.8101    703.0000     47.9635
           29          15      0.9333      0.0933   1385.4938    703.0000     47.9467
           29          16      0.9333      0.1000   1385.7180    703.0000     47.9586
           29          17      0.9333      0.1067   1386.4807    703.0000     47.9991
           29          18      0.9333      0.1133   1387.7767    703.0000     48.0680
           29          19      0.9333      0.1200   1389.5973    703.0000     48.1652
           29          20      0.9333      0.1267   1391.9307    703.0000     48.2905
           29          21      0.9333      0.1333   1394.7624    703.0000     48.4434
           29          22      0.9333      0.1400   1398.0749    703.0000     48.6236
           29          23      0.9333      0.1467   1401.8479    703.0000     48.8305
           29          24      0.9333      0.1533   1406.0589    703.0000     49.0636
           29          25      0.9333      0.1600   1410.6832    703.0000     49.3221
           29          26      0.9333      0.1667   1415.6944    703.0000     49.6053
           29          27      0.9333      0.1733   1421.0641    703.0000     49.9121
           29          28      0.9333      0.1800   1426.7631    703.0000     50.2417
           29          29      0.9333      0.1867   1432.7608    703.0000     50.5928
           29          30      0.9333      0.1933   1439.0262    703.0000     50.9641
           29          31      0.9333      0.2000   1445.5279    703.0000     51.3544
           30           1      0.9667      0.0000   1451.3459    703.0000     51.7079
           30           2      0.9667      0.0067   1446.5644    703.0000     51.4171
           30           3      0.9667      0.0133   1442.0258    703.0000     51.1436
           30           4      0.9667      0.0200   1437.7525    703.0000     50.8882
           30           5      0.9667      0.0267   1433.7664    703.0000     50.6520
           30           6      0.9667      0.0333   1430.0880    703.0000     50.4358
           30           7      0.9667      0.0400   1426.7369    703.0000     50.2402
           30           8      0.9667      0.0467   1423.7308    703.0000     50.0658
           30           9      0.9667      0.0533   1421.0860    703.0000     49.9134
           30          10      0.9667      0.0600   1418.8169    703.0000     49.7833
           30          11      0.9667      0.0667   1416.9356    703.0000     49.6759
           30          12      0.9667      0.0733   1415.4526    703.0000     49.5915
           30          13      0.9667      0.0800   1414.3757    703.0000     49.5305
           30          14      0.9667      0.0867   1413.7106    703.0000     49.4928
           30          15      0.9667      0.0933   1413.4608    703.0000     49.4787
           30          16      0.9667      0.1000   1413.6270    703.0000     49.4881
           30          17      0.9667      0.1067   1414.2079    703.0000     49.5209
           30          18      0.9667      0.1133   1415.1996    703.0000     49.5772
           30          19      0.9667      0.1200   1416.5961    703.0000     49.6565
           30          20      0.9667      0.1267   1418.3887    703.0000     49.7588
           30          21      0.9667      0.1333   1420.5671    703.0000     49.8836
           30          22      0.9667      0.1400   1423.1185    703.0000     50.0305
           30          23      0.9667      0.1467   1426.0285    703.0000     50.1990
           30          24      0.9667      0.1533   1429.2806    703.0000     50.3885
           30          25      0.9667      0.1600   1432.8571    703.0000     50.5984
           30          26      0.9667      0.1667   1436.7384    703.0000     50.8280
           30          27      0.9667      0.1733   1440.9041    703.0000     51.0763
           30          28      0.9667      0.1800   1445.3325    703.0000     51.3426
           30          29      0.9667      0.1867   1450.0013    703.0000     51.6259
           30          30      0.9667      0.1933   1454.8875    703.0000     51.9250
           30          31      0.9667      0.2000   1459.9677    703.0000     52.2389
           31           1      1.0000      0.0000   1469.4685    703.0000     52.8339
           31           2      1.0000      0.0067   1466.1048    703.0000     52.6221
           31           3      1.0000      0.0133   1462.9171    703.0000     52.4226
           31           4      1.0000      0.0200   1459.9203    703.0000     52.2360
           31           5      1.0000      0.0267   1457.1285    703.0000     52.0631
           31           6      1.0000      0.0333   1454.5551    703.0000     51.9046
           31           7      1.0000      0.0400   1452.2130    703.0000     51.7609
           31           8      1.0000      0.0467   1450.1138    703.0000     51.6327
           31           9      1.0000      0.0533   1448.2682    703.0000     51.5204
           31          10      1.0000      0.0600   1446.6854    703.0000     51.4244
           31          11      1.0000      0.0667   1445.3738    703.0000     51.3451
           31          12      1.0000      0.0733   1444.3398    703.0000     51.2827
           31          13      1.0000      0.0800   1443.5888    703.0000     51.2375
           31          14      1.0000      0.0867   1443.1244    703.0000     51.2096
           31          15      1.0000      0.0933   1442.9488    703.0000     51.1990
           31          16      1.0000      0.1000   1443.0626    703.0000     51.2058
           31          17      1.0000      0.1067   1443.4649    703.0000     51.2300
           31          18      1.0000      0.1133   1444.1531    703.0000     51.2715
           31          19      1.0000      0.1200   1445.1232    703.0000     51.3300
           31          20      1.0000      0.1267   1446.3696    703.0000     51.4053
           31          21      1.0000      0.1333   1447.8853    703.0000     51.4972
           31          22      1.0000      0.1400   1449.6620    703.0000     51.6052
           31          23      1.0000      0.1467   1451.6901    703.0000     51.7289
           31          24      1.0000      0.1533   1453.9588    703.0000     51.8679
           31          25      1.0000      0.1600   1456.4563    703.0000     52.0216
           31          26      1.0000      0.1667   1459.1695    703.0000     52.1894
           31          27      1.0000      0.1733   1462.0850    703.0000     52.3706
           31          28      1.0000      0.1800   1465.1881    703.0000     52.5646
           31          29      1.0000      0.1867   1468.4640    703.0000     52.7705
           31          30      1.0000      0.1933   1471.8971    703.0000     52.9877
           31          31      1.0000      0.2000   1475.4718    703.0000     53.2151
