 ====================================================================================
               Transient state solution for a 2D rectangular plate
                    for applications in steel reheating
                 e.g. Reheating furnaces for rolling processing
 ====================================================================================
 Author: Dickson Alves de Souza

 Based on lectures by professor Roberto Parreiras Tavares

 and book Numerical Heat Transfer and Fluid Flow
 by Suhas V. Patankar (1980)

 Federal University of Minas Gerais (UFMG)
 October 26th, 2017
 ====================================================================================
                              Input parameters:

 Lenght in X direction (meters):           1.0000
 Lenght in Y direction (meters):           0.2000
 Nodes in X direction:                         31
 Nodes in Y direction:                         31
 ====================================================================================

                       STAGE                1/  5
                       START Time:         0.0000
                       END Time:        1140.0000
                       Iterations:              811

 ====================================================================================
 Temperature of fluid at left face (T left):             1223.1500
 Temperature of fluid at right face (T right):           1223.1500
 Temperature of fluid at bottom face (T bottom):         1223.1500
 Temperature of fluid at top face (T top):               1223.1500
 ------------------------------------------------------------------------------------
 Heat transfer coefficient at left face (H left):          50.0000
 Heat transfer coefficient at right face (H right):        50.0000
 Heat transfer coefficient at bottom face (H bottom):       8.0000
 Heat transfer coefficient at top face (H top):           150.0000
 ====================================================================================


 ====================================================================================

                       STAGE                2/  5
                       START Time:      1140.0000
                       END Time:        3060.0000
                       Iterations:              811

 ====================================================================================
 Temperature of fluid at left face (T left):             1423.1500
 Temperature of fluid at right face (T right):           1423.1500
 Temperature of fluid at bottom face (T bottom):         1423.1500
 Temperature of fluid at top face (T top):               1423.1500
 ------------------------------------------------------------------------------------
 Heat transfer coefficient at left face (H left):          50.0000
 Heat transfer coefficient at right face (H right):        50.0000
 Heat transfer coefficient at bottom face (H bottom):       8.0000
 Heat transfer coefficient at top face (H top):           150.0000
 ====================================================================================


 ====================================================================================

                       STAGE                3/  5
                       START Time:      3060.0000
                       END Time:        4980.0000
                       Iterations:              811

 ====================================================================================
 Temperature of fluid at left face (T left):             1513.1500
 Temperature of fluid at right face (T right):           1513.1500
 Temperature of fluid at bottom face (T bottom):         1513.1500
 Temperature of fluid at top face (T top):               1513.1500
 ------------------------------------------------------------------------------------
 Heat transfer coefficient at left face (H left):          50.0000
 Heat transfer coefficient at right face (H right):        50.0000
 Heat transfer coefficient at bottom face (H bottom):       8.0000
 Heat transfer coefficient at top face (H top):           150.0000
 ====================================================================================


 SOLUTION of LINEAR SYSTEM: TDMA (tri-diagonal matrix algorithm)
      ADI approach employed in solution.
 Tolerance:       0.0010

 ====================================================================================
                    Calculation Results
 Current time:    4260.0000000000000       seconds
 Maximum Temperature :    1481.7057997521472
 Minimum Temperature :    1285.6678813702595
 Average(algebraic, non-weigthed) Temperature :    1367.1803407130726
 ====================================================================================
            I           J        X(m)        Y(m)        T(K)  Cp(J/kg.K) K(W/sq-m.K)
 ====================================================================================
            1           1      0.0000      0.0000   1476.7848    703.0000     53.2990
            1           2      0.0000      0.0067   1473.9894    703.0000     53.1206
            1           3      0.0000      0.0133   1471.3415    703.0000     52.9524
            1           4      0.0000      0.0200   1468.8528    703.0000     52.7951
            1           5      0.0000      0.0267   1466.5349    703.0000     52.6491
            1           6      0.0000      0.0333   1464.3987    703.0000     52.5152
            1           7      0.0000      0.0400   1462.4546    703.0000     52.3937
            1           8      0.0000      0.0467   1460.7120    703.0000     52.2852
            1           9      0.0000      0.0533   1459.1796    703.0000     52.1900
            1          10      0.0000      0.0600   1457.8649    703.0000     52.1086
            1          11      0.0000      0.0667   1456.7747    703.0000     52.0413
            1          12      0.0000      0.0733   1455.9145    703.0000     51.9882
            1          13      0.0000      0.0800   1455.2884    703.0000     51.9497
            1          14      0.0000      0.0867   1454.8997    703.0000     51.9258
            1          15      0.0000      0.0933   1454.7501    703.0000     51.9165
            1          16      0.0000      0.1000   1454.8402    703.0000     51.9221
            1          17      0.0000      0.1067   1455.1692    703.0000     51.9423
            1          18      0.0000      0.1133   1455.7351    703.0000     51.9772
            1          19      0.0000      0.1200   1456.5348    703.0000     52.0265
            1          20      0.0000      0.1267   1457.5636    703.0000     52.0900
            1          21      0.0000      0.1333   1458.8160    703.0000     52.1675
            1          22      0.0000      0.1400   1460.2852    703.0000     52.2587
            1          23      0.0000      0.1467   1461.9635    703.0000     52.3631
            1          24      0.0000      0.1533   1463.8420    703.0000     52.4803
            1          25      0.0000      0.1600   1465.9112    703.0000     52.6100
            1          26      0.0000      0.1667   1468.1606    703.0000     52.7514
            1          27      0.0000      0.1733   1470.5793    703.0000     52.9042
            1          28      0.0000      0.1800   1473.1554    703.0000     53.0676
            1          29      0.0000      0.1867   1475.8769    703.0000     53.2410
            1          30      0.0000      0.1933   1478.7313    703.0000     53.4238
            1          31      0.0000      0.2000   1481.7058    703.0000     53.6152
            2           1      0.0333      0.0000   1461.6882    703.0000     52.3459
            2           2      0.0333      0.0067   1457.7166    703.0000     52.0995
            2           3      0.0333      0.0133   1453.9491    703.0000     51.8673
            2           4      0.0333      0.0200   1450.4037    703.0000     51.6504
            2           5      0.0333      0.0267   1447.0980    703.0000     51.4494
            2           6      0.0333      0.0333   1444.0485    703.0000     51.2652
            2           7      0.0333      0.0400   1441.2707    703.0000     51.0983
            2           8      0.0333      0.0467   1438.7790    703.0000     50.9494
            2           9      0.0333      0.0533   1436.5865    703.0000     50.8190
            2          10      0.0333      0.0600   1434.7048    703.0000     50.7075
            2          11      0.0333      0.0667   1433.1438    703.0000     50.6153
            2          12      0.0333      0.0733   1431.9119    703.0000     50.5428
            2          13      0.0333      0.0800   1431.0156    703.0000     50.4901
            2          14      0.0333      0.0867   1430.4596    703.0000     50.4575
            2          15      0.0333      0.0933   1430.2466    703.0000     50.4451
            2          16      0.0333      0.1000   1430.3775    703.0000     50.4527
            2          17      0.0333      0.1067   1430.8513    703.0000     50.4805
            2          18      0.0333      0.1133   1431.6648    703.0000     50.5283
            2          19      0.0333      0.1200   1432.8133    703.0000     50.5958
            2          20      0.0333      0.1267   1434.2899    703.0000     50.6830
            2          21      0.0333      0.1333   1436.0861    703.0000     50.7893
            2          22      0.0333      0.1400   1438.1919    703.0000     50.9144
            2          23      0.0333      0.1467   1440.5954    703.0000     51.0579
            2          24      0.0333      0.1533   1443.2837    703.0000     51.2191
            2          25      0.0333      0.1600   1446.2423    703.0000     51.3976
            2          26      0.0333      0.1667   1449.4556    703.0000     51.5926
            2          27      0.0333      0.1733   1452.9071    703.0000     51.8034
            2          28      0.0333      0.1800   1456.5796    703.0000     52.0292
            2          29      0.0333      0.1867   1460.4550    703.0000     52.2692
            2          30      0.0333      0.1933   1464.5147    703.0000     52.5224
            2          31      0.0333      0.2000   1468.7401    703.0000     52.7880
            3           1      0.0667      0.0000   1447.3202    703.0000     51.4629
            3           2      0.0667      0.0067   1442.2211    703.0000     51.1553
            3           3      0.0667      0.0133   1437.3770    703.0000     50.8659
            3           4      0.0667      0.0200   1432.8124    703.0000     50.5958
            3           5      0.0667      0.0267   1428.5510    703.0000     50.3459
            3           6      0.0667      0.0333   1424.6154    703.0000     50.1170
            3           7      0.0667      0.0400   1421.0271    703.0000     49.9100
            3           8      0.0667      0.0467   1417.8057    703.0000     49.7255
            3           9      0.0667      0.0533   1414.9693    703.0000     49.5641
            3          10      0.0667      0.0600   1412.5339    703.0000     49.4263
            3          11      0.0667      0.0667   1410.5133    703.0000     49.3126
            3          12      0.0667      0.0733   1408.9190    703.0000     49.2232
            3          13      0.0667      0.0800   1407.7601    703.0000     49.1584
            3          14      0.0667      0.0867   1407.0431    703.0000     49.1184
            3          15      0.0667      0.0933   1406.7719    703.0000     49.1033
            3          16      0.0667      0.1000   1406.9475    703.0000     49.1131
            3          17      0.0667      0.1067   1407.5685    703.0000     49.1477
            3          18      0.0667      0.1133   1408.6308    703.0000     49.2070
            3          19      0.0667      0.1200   1410.1275    703.0000     49.2909
            3          20      0.0667      0.1267   1412.0493    703.0000     49.3990
            3          21      0.0667      0.1333   1414.3845    703.0000     49.5310
            3          22      0.0667      0.1400   1417.1190    703.0000     49.6863
            3          23      0.0667      0.1467   1420.2368    703.0000     49.8646
            3          24      0.0667      0.1533   1423.7199    703.0000     50.0652
            3          25      0.0667      0.1600   1427.5484    703.0000     50.2874
            3          26      0.0667      0.1667   1431.7011    703.0000     50.5304
            3          27      0.0667      0.1733   1436.1557    703.0000     50.7934
            3          28      0.0667      0.1800   1440.8884    703.0000     51.0754
            3          29      0.0667      0.1867   1445.8750    703.0000     51.3754
            3          30      0.0667      0.1933   1451.0906    703.0000     51.6923
            3          31      0.0667      0.2000   1456.5100    703.0000     52.0249
            4           1      0.1000      0.0000   1434.0257    703.0000     50.6674
            4           2      0.1000      0.0067   1427.8776    703.0000     50.3066
            4           3      0.1000      0.0133   1422.0292    703.0000     49.9677
            4           4      0.1000      0.0200   1416.5117    703.0000     49.6517
            4           5      0.1000      0.0267   1411.3551    703.0000     49.3599
            4           6      0.1000      0.0333   1406.5882    703.0000     49.0930
            4           7      0.1000      0.0400   1402.2382    703.0000     48.8520
            4           8      0.1000      0.0467   1398.3305    703.0000     48.6375
            4           9      0.1000      0.0533   1394.8881    703.0000     48.4502
            4          10      0.1000      0.0600   1391.9315    703.0000     48.2905
            4          11      0.1000      0.0667   1389.4786    703.0000     48.1589
            4          12      0.1000      0.0733   1387.5441    703.0000     48.0556
            4          13      0.1000      0.0800   1386.1399    703.0000     47.9810
            4          14      0.1000      0.0867   1385.2741    703.0000     47.9351
            4          15      0.1000      0.0933   1384.9519    703.0000     47.9180
            4          16      0.1000      0.1000   1385.1746    703.0000     47.9298
            4          17      0.1000      0.1067   1385.9403    703.0000     47.9704
            4          18      0.1000      0.1133   1387.2435    703.0000     48.0396
            4          19      0.1000      0.1200   1389.0754    703.0000     48.1373
            4          20      0.1000      0.1267   1391.4241    703.0000     48.2632
            4          21      0.1000      0.1333   1394.2743    703.0000     48.4170
            4          22      0.1000      0.1400   1397.6080    703.0000     48.5981
            4          23      0.1000      0.1467   1401.4045    703.0000     48.8061
            4          24      0.1000      0.1533   1405.6406    703.0000     49.0403
            4          25      0.1000      0.1600   1410.2911    703.0000     49.3001
            4          26      0.1000      0.1667   1415.3289    703.0000     49.5845
            4          27      0.1000      0.1733   1420.7255    703.0000     49.8927
            4          28      0.1000      0.1800   1426.4508    703.0000     50.2235
            4          29      0.1000      0.1867   1432.4744    703.0000     50.5759
            4          30      0.1000      0.1933   1438.7649    703.0000     50.9485
            4          31      0.1000      0.2000   1445.2908    703.0000     51.3401
            5           1      0.1333      0.0000   1422.0597    703.0000     49.9694
            5           2      0.1333      0.0067   1414.9631    703.0000     49.5638
            5           3      0.1333      0.0133   1408.2054    703.0000     49.1833
            5           4      0.1333      0.0200   1401.8236    703.0000     48.8292
            5           5      0.1333      0.0267   1395.8540    703.0000     48.5026
            5           6      0.1333      0.0333   1390.3313    703.0000     48.2046
            5           7      0.1333      0.0400   1385.2884    703.0000     47.9358
            5           8      0.1333      0.0467   1380.7559    703.0000     47.6971
            5           9      0.1333      0.0533   1376.7619    703.0000     47.4889
            5          10      0.1333      0.0600   1373.3311    703.0000     47.3118
            5          11      0.1333      0.0667   1370.4854    703.0000     47.1661
            5          12      0.1333      0.0733   1368.2427    703.0000     47.0520
            5          13      0.1333      0.0800   1366.6172    703.0000     46.9697
            5          14      0.1333      0.0867   1365.6190    703.0000     46.9193
            5          15      0.1333      0.0933   1365.2540    703.0000     46.9009
            5          16      0.1333      0.1000   1365.5242    703.0000     46.9145
            5          17      0.1333      0.1067   1366.4269    703.0000     46.9600
            5          18      0.1333      0.1133   1367.9555    703.0000     47.0374
            5          19      0.1333      0.1200   1370.0991    703.0000     47.1464
            5          20      0.1333      0.1267   1372.8431    703.0000     47.2867
            5          21      0.1333      0.1333   1376.1688    703.0000     47.4582
            5          22      0.1333      0.1400   1380.0543    703.0000     47.6604
            5          23      0.1333      0.1467   1384.4744    703.0000     47.8928
            5          24      0.1333      0.1533   1389.4009    703.0000     48.1547
            5          25      0.1333      0.1600   1394.8032    703.0000     48.4456
            5          26      0.1333      0.1667   1400.6486    703.0000     48.7645
            5          27      0.1333      0.1733   1406.9024    703.0000     49.1106
            5          28      0.1333      0.1800   1413.5290    703.0000     49.4825
            5          29      0.1333      0.1867   1420.4915    703.0000     49.8792
            5          30      0.1333      0.1933   1427.7527    703.0000     50.2993
            5          31      0.1333      0.2000   1435.2751    703.0000     50.7412
            6           1      0.1667      0.0000   1411.5718    703.0000     49.3721
            6           2      0.1667      0.0067   1403.6414    703.0000     48.9295
            6           3      0.1667      0.0133   1396.0831    703.0000     48.5151
            6           4      0.1667      0.0200   1388.9398    703.0000     48.1301
            6           5      0.1667      0.0267   1382.2533    703.0000     47.7757
            6           6      0.1667      0.0333   1376.0637    703.0000     47.4528
            6           7      0.1667      0.0400   1370.4092    703.0000     47.1622
            6           8      0.1667      0.0467   1365.3254    703.0000     46.9045
            6           9      0.1667      0.0533   1360.8446    703.0000     46.6803
            6          10      0.1667      0.0600   1356.9959    703.0000     46.4898
            6          11      0.1667      0.0667   1353.8044    703.0000     46.3333
            6          12      0.1667      0.0733   1351.2911    703.0000     46.2111
            6          13      0.1667      0.0800   1349.4724    703.0000     46.1232
            6          14      0.1667      0.0867   1348.3600    703.0000     46.0696
            6          15      0.1667      0.0933   1347.9608    703.0000     46.0504
            6          16      0.1667      0.1000   1348.2768    703.0000     46.0656
            6          17      0.1667      0.1067   1349.3049    703.0000     46.1151
            6          18      0.1667      0.1133   1351.0373    703.0000     46.1988
            6          19      0.1667      0.1200   1353.4612    703.0000     46.3166
            6          20      0.1667      0.1267   1356.5594    703.0000     46.4683
            6          21      0.1667      0.1333   1360.3102    703.0000     46.6537
            6          22      0.1667      0.1400   1364.6879    703.0000     46.8724
            6          23      0.1667      0.1467   1369.6631    703.0000     47.1241
            6          24      0.1667      0.1533   1375.2031    703.0000     47.4083
            6          25      0.1667      0.1600   1381.2722    703.0000     47.7242
            6          26      0.1667      0.1667   1387.8324    703.0000     48.0710
            6          27      0.1667      0.1733   1394.8438    703.0000     48.4478
            6          28      0.1667      0.1800   1402.2651    703.0000     48.8535
            6          29      0.1667      0.1867   1410.0539    703.0000     49.2868
            6          30      0.1667      0.1933   1418.1675    703.0000     49.7462
            6          31      0.1667      0.2000   1426.5631    703.0000     50.2300
            7           1      0.2000      0.0000   1402.6142    703.0000     48.8728
            7           2      0.2000      0.0067   1393.9700    703.0000     48.4005
            7           3      0.2000      0.0133   1385.7260    703.0000     47.9590
            7           4      0.2000      0.0200   1377.9301    703.0000     47.5496
            7           5      0.2000      0.0267   1370.6289    703.0000     47.1734
            7           6      0.2000      0.0333   1363.8675    703.0000     46.8313
            7           7      0.2000      0.0400   1357.6886    703.0000     46.5239
            7           8      0.2000      0.0467   1352.1320    703.0000     46.2519
            7           9      0.2000      0.0533   1347.2343    703.0000     46.0156
            7          10      0.2000      0.0600   1343.0279    703.0000     45.8152
            7          11      0.2000      0.0667   1339.5410    703.0000     45.6510
            7          12      0.2000      0.0733   1336.7972    703.0000     45.5229
            7          13      0.2000      0.0800   1334.8147    703.0000     45.4310
            7          14      0.2000      0.0867   1333.6068    703.0000     45.3752
            7          15      0.2000      0.0933   1333.1810    703.0000     45.3556
            7          16      0.2000      0.1000   1333.5394    703.0000     45.3721
            7          17      0.2000      0.1067   1334.6785    703.0000     45.4247
            7          18      0.2000      0.1133   1336.5893    703.0000     45.5132
            7          19      0.2000      0.1200   1339.2575    703.0000     45.6377
            7          20      0.2000      0.1267   1342.6634    703.0000     45.7980
            7          21      0.2000      0.1333   1346.7826    703.0000     45.9939
            7          22      0.2000      0.1400   1351.5862    703.0000     46.2254
            7          23      0.2000      0.1467   1357.0409    703.0000     46.4920
            7          24      0.2000      0.1533   1363.1100    703.0000     46.7933
            7          25      0.2000      0.1600   1369.7535    703.0000     47.1288
            7          26      0.2000      0.1667   1376.9286    703.0000     47.4976
            7          27      0.2000      0.1733   1384.5907    703.0000     47.8989
            7          28      0.2000      0.1800   1392.6935    703.0000     48.3316
            7          29      0.2000      0.1867   1401.1898    703.0000     48.7943
            7          30      0.2000      0.1933   1410.0320    703.0000     49.2855
            7          31      0.2000      0.2000   1419.1726    703.0000     49.8036
            8           1      0.2333      0.0000   1395.1573    703.0000     48.4648
            8           2      0.2333      0.0067   1385.9181    703.0000     47.9692
            8           3      0.2333      0.0133   1377.1024    703.0000     47.5066
            8           4      0.2333      0.0200   1368.7621    703.0000     47.0783
            8           5      0.2333      0.0267   1360.9481    703.0000     46.6854
            8           6      0.2333      0.0333   1353.7097    703.0000     46.3287
            8           7      0.2333      0.0400   1347.0935    703.0000     46.0088
            8           8      0.2333      0.0467   1341.1429    703.0000     45.7262
            8           9      0.2333      0.0533   1335.8979    703.0000     45.4811
            8          10      0.2333      0.0600   1331.3939    703.0000     45.2737
            8          11      0.2333      0.0667   1327.6617    703.0000     45.1039
            8          12      0.2333      0.0733   1324.7269    703.0000     44.9717
            8          13      0.2333      0.0800   1322.6095    703.0000     44.8771
            8          14      0.2333      0.0867   1321.3238    703.0000     44.8200
            8          15      0.2333      0.0933   1320.8779    703.0000     44.8002
            8          16      0.2333      0.1000   1321.2740    703.0000     44.8177
            8          17      0.2333      0.1067   1322.5082    703.0000     44.8726
            8          18      0.2333      0.1133   1324.5704    703.0000     44.9647
            8          19      0.2333      0.1200   1327.4450    703.0000     45.0941
            8          20      0.2333      0.1267   1331.1103    703.0000     45.2607
            8          21      0.2333      0.1333   1335.5395    703.0000     45.4645
            8          22      0.2333      0.1400   1340.7009    703.0000     45.7054
            8          23      0.2333      0.1467   1346.5580    703.0000     45.9832
            8          24      0.2333      0.1533   1353.0707    703.0000     46.2975
            8          25      0.2333      0.1600   1360.1950    703.0000     46.6480
            8          26      0.2333      0.1667   1367.8845    703.0000     47.0338
            8          27      0.2333      0.1733   1376.0901    703.0000     47.4541
            8          28      0.2333      0.1800   1384.7616    703.0000     47.9079
            8          29      0.2333      0.1867   1393.8476    703.0000     48.3939
            8          30      0.2333      0.1933   1403.2964    703.0000     48.9104
            8          31      0.2333      0.2000   1413.0566    703.0000     49.4558
            9           1      0.2667      0.0000   1389.1086    703.0000     48.1391
            9           2      0.2667      0.0067   1379.3865    703.0000     47.6255
            9           3      0.2667      0.0133   1370.1065    703.0000     47.1467
            9           4      0.2667      0.0200   1361.3242    703.0000     46.7041
            9           5      0.2667      0.0267   1353.0940    703.0000     46.2987
            9           6      0.2667      0.0333   1345.4684    703.0000     45.9312
            9           7      0.2667      0.0400   1338.4973    703.0000     45.6021
            9           8      0.2667      0.0467   1332.2272    703.0000     45.3118
            9           9      0.2667      0.0533   1326.7008    703.0000     45.0605
            9          10      0.2667      0.0600   1321.9559    703.0000     44.8480
            9          11      0.2667      0.0667   1318.0255    703.0000     44.6744
            9          12      0.2667      0.0733   1314.9367    703.0000     44.5395
            9          13      0.2667      0.0800   1312.7110    703.0000     44.4431
            9          14      0.2667      0.0867   1311.3634    703.0000     44.3851
            9          15      0.2667      0.0933   1310.9027    703.0000     44.3653
            9          16      0.2667      0.1000   1311.3310    703.0000     44.3837
            9          17      0.2667      0.1067   1312.6441    703.0000     44.4402
            9          18      0.2667      0.1133   1314.8311    703.0000     44.5349
            9          19      0.2667      0.1200   1317.8749    703.0000     44.6678
            9          20      0.2667      0.1267   1321.7526    703.0000     44.8390
            9          21      0.2667      0.1333   1326.4352    703.0000     45.0485
            9          22      0.2667      0.1400   1331.8886    703.0000     45.2963
            9          23      0.2667      0.1467   1338.0740    703.0000     45.5823
            9          24      0.2667      0.1533   1344.9480    703.0000     45.9064
            9          25      0.2667      0.1600   1352.4639    703.0000     46.2680
            9          26      0.2667      0.1667   1360.5718    703.0000     46.6667
            9          27      0.2667      0.1733   1369.2193    703.0000     47.1016
            9          28      0.2667      0.1800   1378.3528    703.0000     47.5716
            9          29      0.2667      0.1867   1387.9173    703.0000     48.0755
            9          30      0.2667      0.1933   1397.8580    703.0000     48.6117
            9          31      0.2667      0.2000   1408.1200    703.0000     49.1785
           10           1      0.3000      0.0000   1384.3319    703.0000     47.8852
           10           2      0.3000      0.0067   1374.2284    703.0000     47.3580
           10           3      0.3000      0.0133   1364.5817    703.0000     46.8671
           10           4      0.3000      0.0200   1355.4503    703.0000     46.4138
           10           5      0.3000      0.0267   1346.8914    703.0000     45.9992
           10           6      0.3000      0.0333   1338.9602    703.0000     45.6238
           10           7      0.3000      0.0400   1331.7091    703.0000     45.2881
           10           8      0.3000      0.0467   1325.1871    703.0000     44.9923
           10           9      0.3000      0.0533   1319.4390    703.0000     44.7366
           10          10      0.3000      0.0600   1314.5045    703.0000     44.5207
           10          11      0.3000      0.0667   1310.4182    703.0000     44.3445
           10          12      0.3000      0.0733   1307.2087    703.0000     44.2078
           10          13      0.3000      0.0800   1304.8983    703.0000     44.1103
           10          14      0.3000      0.0867   1303.5029    703.0000     44.0517
           10          15      0.3000      0.0933   1303.0315    703.0000     44.0320
           10          16      0.3000      0.1000   1303.4863    703.0000     44.0510
           10          17      0.3000      0.1067   1304.8627    703.0000     44.1088
           10          18      0.3000      0.1133   1307.1491    703.0000     44.2053
           10          19      0.3000      0.1200   1310.3277    703.0000     44.3407
           10          20      0.3000      0.1267   1314.3740    703.0000     44.5151
           10          21      0.3000      0.1333   1319.2576    703.0000     44.7286
           10          22      0.3000      0.1400   1324.9426    703.0000     44.9814
           10          23      0.3000      0.1467   1331.3879    703.0000     45.2734
           10          24      0.3000      0.1533   1338.5481    703.0000     45.6045
           10          25      0.3000      0.1600   1346.3738    703.0000     45.9744
           10          26      0.3000      0.1667   1354.8126    703.0000     46.3826
           10          27      0.3000      0.1733   1363.8094    703.0000     46.8283
           10          28      0.3000      0.1800   1373.3079    703.0000     47.3106
           10          29      0.3000      0.1867   1383.2503    703.0000     47.8282
           10          30      0.3000      0.1933   1393.5791    703.0000     48.3794
           10          31      0.3000      0.2000   1404.2370    703.0000     48.9625
           11           1      0.3333      0.0000   1380.6668    703.0000     47.6924
           11           2      0.3333      0.0067   1370.2705    703.0000     47.1551
           11           3      0.3333      0.0133   1360.3425    703.0000     46.6553
           11           4      0.3333      0.0200   1350.9434    703.0000     46.1942
           11           5      0.3333      0.0267   1342.1325    703.0000     45.7729
           11           6      0.3333      0.0333   1333.9671    703.0000     45.3918
           11           7      0.3333      0.0400   1326.5016    703.0000     45.0515
           11           8      0.3333      0.0467   1319.7867    703.0000     44.7519
           11           9      0.3333      0.0533   1313.8689    703.0000     44.4932
           11          10      0.3333      0.0600   1308.7896    703.0000     44.2750
           11          11      0.3333      0.0667   1304.5843    703.0000     44.0971
           11          12      0.3333      0.0733   1301.2828    703.0000     43.9592
           11          13      0.3333      0.0800   1298.9082    703.0000     43.8609
           11          14      0.3333      0.0867   1297.4767    703.0000     43.8021
           11          15      0.3333      0.0933   1296.9977    703.0000     43.7825
           11          16      0.3333      0.1000   1297.4733    703.0000     43.8020
           11          17      0.3333      0.1067   1298.8988    703.0000     43.8605
           11          18      0.3333      0.1133   1301.2621    703.0000     43.9583
           11          19      0.3333      0.1200   1304.5444    703.0000     44.0954
           11          20      0.3333      0.1267   1308.7205    703.0000     44.2720
           11          21      0.3333      0.1333   1313.7587    703.0000     44.4884
           11          22      0.3333      0.1400   1319.6216    703.0000     44.7447
           11          23      0.3333      0.1467   1326.2666    703.0000     45.0409
           11          24      0.3333      0.1533   1333.6466    703.0000     45.3771
           11          25      0.3333      0.1600   1341.7101    703.0000     45.7529
           11          26      0.3333      0.1667   1350.4029    703.0000     46.1681
           11          27      0.3333      0.1733   1359.6678    703.0000     46.6218
           11          28      0.3333      0.1800   1369.4463    703.0000     47.1131
           11          29      0.3333      0.1867   1379.6786    703.0000     47.6407
           11          30      0.3333      0.1933   1390.3050    703.0000     48.2032
           11          31      0.3333      0.2000   1401.2663    703.0000     48.7985
           12           1      0.3667      0.0000   1377.9460    703.0000     47.5504
           12           2      0.3667      0.0067   1367.3324    703.0000     47.0058
           12           3      0.3667      0.0133   1357.1957    703.0000     46.4996
           12           4      0.3667      0.0200   1347.5980    703.0000     46.0330
           12           5      0.3667      0.0267   1338.6002    703.0000     45.6069
           12           6      0.3667      0.0333   1330.2613    703.0000     45.2219
           12           7      0.3667      0.0400   1322.6369    703.0000     44.8783
           12           8      0.3667      0.0467   1315.7793    703.0000     44.5762
           12           9      0.3667      0.0533   1309.7361    703.0000     44.3154
           12          10      0.3667      0.0600   1304.5496    703.0000     44.0956
           12          11      0.3667      0.0667   1300.2565    703.0000     43.9166
           12          12      0.3667      0.0733   1296.8872    703.0000     43.7780
           12          13      0.3667      0.0800   1294.4652    703.0000     43.6793
           12          14      0.3667      0.0867   1293.0074    703.0000     43.6203
           12          15      0.3667      0.0933   1292.5231    703.0000     43.6008
           12          16      0.3667      0.1000   1293.0145    703.0000     43.6206
           12          17      0.3667      0.1067   1294.4767    703.0000     43.6797
           12          18      0.3667      0.1133   1296.8971    703.0000     43.7784
           12          19      0.3667      0.1200   1300.2567    703.0000     43.9166
           12          20      0.3667      0.1267   1304.5291    703.0000     44.0948
           12          21      0.3667      0.1333   1309.6820    703.0000     44.3131
           12          22      0.3667      0.1400   1315.6770    703.0000     44.5717
           12          23      0.3667      0.1467   1322.4703    703.0000     44.8709
           12          24      0.3667      0.1533   1330.0133    703.0000     45.2106
           12          25      0.3667      0.1600   1338.2534    703.0000     45.5907
           12          26      0.3667      0.1667   1347.1346    703.0000     46.0108
           12          27      0.3667      0.1733   1356.5985    703.0000     46.4702
           12          28      0.3667      0.1800   1366.5847    703.0000     46.9680
           12          29      0.3667      0.1867   1377.0321    703.0000     47.5030
           12          30      0.3667      0.1933   1387.8793    703.0000     48.0735
           12          31      0.3667      0.2000   1399.0657    703.0000     48.6778
           13           1      0.4000      0.0000   1376.0125    703.0000     47.4501
           13           2      0.4000      0.0067   1365.2445    703.0000     46.9004
           13           3      0.4000      0.0133   1354.9595    703.0000     46.3898
           13           4      0.4000      0.0200   1345.2208    703.0000     45.9194
           13           5      0.4000      0.0267   1336.0904    703.0000     45.4900
           13           6      0.4000      0.0333   1327.6284    703.0000     45.1024
           13           7      0.4000      0.0400   1319.8914    703.0000     44.7566
           13           8      0.4000      0.0467   1312.9327    703.0000     44.4527
           13           9      0.4000      0.0533   1306.8006    703.0000     44.1905
           13          10      0.4000      0.0600   1301.5383    703.0000     43.9698
           13          11      0.4000      0.0667   1297.1831    703.0000     43.7901
           13          12      0.4000      0.0733   1293.7659    703.0000     43.6509
           13          13      0.4000      0.0800   1291.3106    703.0000     43.5520
           13          14      0.4000      0.0867   1289.8342    703.0000     43.4929
           13          15      0.4000      0.0933   1289.3464    703.0000     43.4735
           13          16      0.4000      0.1000   1289.8492    703.0000     43.4935
           13          17      0.4000      0.1067   1291.3375    703.0000     43.5531
           13          18      0.4000      0.1133   1293.7987    703.0000     43.6523
           13          19      0.4000      0.1200   1297.2130    703.0000     43.7913
           13          20      0.4000      0.1267   1301.5539    703.0000     43.9704
           13          21      0.4000      0.1333   1306.7884    703.0000     44.1900
           13          22      0.4000      0.1400   1312.8771    703.0000     44.4503
           13          23      0.4000      0.1467   1319.7756    703.0000     44.7514
           13          24      0.4000      0.1533   1327.4344    703.0000     45.0936
           13          25      0.4000      0.1600   1335.7998    703.0000     45.4766
           13          26      0.4000      0.1667   1344.8149    703.0000     45.9000
           13          27      0.4000      0.1733   1354.4199    703.0000     46.3634
           13          28      0.4000      0.1800   1364.5537    703.0000     46.8657
           13          29      0.4000      0.1867   1375.1538    703.0000     47.4057
           13          30      0.4000      0.1933   1386.1579    703.0000     47.9819
           13          31      0.4000      0.2000   1397.5041    703.0000     48.5924
           14           1      0.4333      0.0000   1374.7327    703.0000     47.3840
           14           2      0.4333      0.0067   1363.8626    703.0000     46.8310
           14           3      0.4333      0.0133   1353.4795    703.0000     46.3175
           14           4      0.4333      0.0200   1343.6475    703.0000     45.8446
           14           5      0.4333      0.0267   1334.4295    703.0000     45.4132
           14           6      0.4333      0.0333   1325.8860    703.0000     45.0238
           14           7      0.4333      0.0400   1318.0747    703.0000     44.6766
           14           8      0.4333      0.0467   1311.0492    703.0000     44.3716
           14           9      0.4333      0.0533   1304.8585    703.0000     44.1086
           14          10      0.4333      0.0600   1299.5463    703.0000     43.8872
           14          11      0.4333      0.0667   1295.1502    703.0000     43.7071
           14          12      0.4333      0.0733   1291.7014    703.0000     43.5677
           14          13      0.4333      0.0800   1289.2242    703.0000     43.4686
           14          14      0.4333      0.0867   1287.7357    703.0000     43.4095
           14          15      0.4333      0.0933   1287.2456    703.0000     43.3901
           14          16      0.4333      0.1000   1287.7560    703.0000     43.4103
           14          17      0.4333      0.1067   1289.2617    703.0000     43.4701
           14          18      0.4333      0.1133   1291.7498    703.0000     43.5696
           14          19      0.4333      0.1200   1295.2004    703.0000     43.7091
           14          20      0.4333      0.1267   1299.5866    703.0000     43.8889
           14          21      0.4333      0.1333   1304.8749    703.0000     44.1093
           14          22      0.4333      0.1400   1311.0257    703.0000     44.3706
           14          23      0.4333      0.1467   1317.9938    703.0000     44.6730
           14          24      0.4333      0.1533   1325.7291    703.0000     45.0167
           14          25      0.4333      0.1600   1334.1773    703.0000     45.4015
           14          26      0.4333      0.1667   1343.2809    703.0000     45.8272
           14          27      0.4333      0.1733   1352.9793    703.0000     46.2931
           14          28      0.4333      0.1800   1363.2106    703.0000     46.7983
           14          29      0.4333      0.1867   1373.9118    703.0000     47.3417
           14          30      0.4333      0.1933   1385.0196    703.0000     47.9216
           14          31      0.4333      0.2000   1396.4716    703.0000     48.5362
           15           1      0.4667      0.0000   1374.0062    703.0000     47.3465
           15           2      0.4667      0.0067   1363.0780    703.0000     46.7917
           15           3      0.4667      0.0133   1352.6393    703.0000     46.2765
           15           4      0.4667      0.0200   1342.7544    703.0000     45.8023
           15           5      0.4667      0.0267   1333.4867    703.0000     45.3697
           15           6      0.4667      0.0333   1324.8971    703.0000     44.9793
           15           7      0.4667      0.0400   1317.0437    703.0000     44.6314
           15           8      0.4667      0.0467   1309.9803    703.0000     44.3258
           15           9      0.4667      0.0533   1303.7564    703.0000     44.0624
           15          10      0.4667      0.0600   1298.4159    703.0000     43.8407
           15          11      0.4667      0.0667   1293.9966    703.0000     43.6603
           15          12      0.4667      0.0733   1290.5300    703.0000     43.5207
           15          13      0.4667      0.0800   1288.0405    703.0000     43.4216
           15          14      0.4667      0.0867   1286.5451    703.0000     43.3624
           15          15      0.4667      0.0933   1286.0538    703.0000     43.3431
           15          16      0.4667      0.1000   1286.5686    703.0000     43.3634
           15          17      0.4667      0.1067   1288.0841    703.0000     43.4233
           15          18      0.4667      0.1133   1290.5875    703.0000     43.5230
           15          19      0.4667      0.1200   1294.0587    703.0000     43.6628
           15          20      0.4667      0.1267   1298.4706    703.0000     43.8429
           15          21      0.4667      0.1333   1303.7895    703.0000     44.0637
           15          22      0.4667      0.1400   1309.9754    703.0000     44.3256
           15          23      0.4667      0.1467   1316.9829    703.0000     44.6287
           15          24      0.4667      0.1533   1324.7616    703.0000     44.9733
           15          25      0.4667      0.1600   1333.2569    703.0000     45.3591
           15          26      0.4667      0.1667   1342.4106    703.0000     45.7860
           15          27      0.4667      0.1733   1352.1620    703.0000     46.2533
           15          28      0.4667      0.1800   1362.4487    703.0000     46.7602
           15          29      0.4667      0.1867   1373.2071    703.0000     47.3054
           15          30      0.4667      0.1933   1384.3738    703.0000     47.8874
           15          31      0.4667      0.2000   1395.8859    703.0000     48.5044
           16           1      0.5000      0.0000   1373.7709    703.0000     47.3344
           16           2      0.5000      0.0067   1362.8239    703.0000     46.7790
           16           3      0.5000      0.0133   1352.3672    703.0000     46.2633
           16           4      0.5000      0.0200   1342.4652    703.0000     45.7886
           16           5      0.5000      0.0267   1333.1814    703.0000     45.3556
           16           6      0.5000      0.0333   1324.5769    703.0000     44.9650
           16           7      0.5000      0.0400   1316.7097    703.0000     44.6168
           16           8      0.5000      0.0467   1309.6341    703.0000     44.3110
           16           9      0.5000      0.0533   1303.3995    703.0000     44.0474
           16          10      0.5000      0.0600   1298.0498    703.0000     43.8256
           16          11      0.5000      0.0667   1293.6231    703.0000     43.6452
           16          12      0.5000      0.0733   1290.1507    703.0000     43.5056
           16          13      0.5000      0.0800   1287.6572    703.0000     43.4064
           16          14      0.5000      0.0867   1286.1596    703.0000     43.3472
           16          15      0.5000      0.0933   1285.6679    703.0000     43.3279
           16          16      0.5000      0.1000   1286.1841    703.0000     43.3482
           16          17      0.5000      0.1067   1287.7028    703.0000     43.4082
           16          18      0.5000      0.1133   1290.2112    703.0000     43.5080
           16          19      0.5000      0.1200   1293.6891    703.0000     43.6478
           16          20      0.5000      0.1267   1298.1093    703.0000     43.8281
           16          21      0.5000      0.1333   1303.4380    703.0000     44.0490
           16          22      0.5000      0.1400   1309.6353    703.0000     44.3111
           16          23      0.5000      0.1467   1316.6556    703.0000     44.6144
           16          24      0.5000      0.1533   1324.4483    703.0000     44.9592
           16          25      0.5000      0.1600   1332.9588    703.0000     45.3454
           16          26      0.5000      0.1667   1342.1287    703.0000     45.7727
           16          27      0.5000      0.1733   1351.8973    703.0000     46.2405
           16          28      0.5000      0.1800   1362.2019    703.0000     46.7479
           16          29      0.5000      0.1867   1372.9790    703.0000     47.2937
           16          30      0.5000      0.1933   1384.1647    703.0000     47.8764
           16          31      0.5000      0.2000   1395.6962    703.0000     48.4941
           17           1      0.5333      0.0000   1374.0058    703.0000     47.3465
           17           2      0.5333      0.0067   1363.0776    703.0000     46.7917
           17           3      0.5333      0.0133   1352.6388    703.0000     46.2765
           17           4      0.5333      0.0200   1342.7539    703.0000     45.8022
           17           5      0.5333      0.0267   1333.4861    703.0000     45.3697
           17           6      0.5333      0.0333   1324.8965    703.0000     44.9793
           17           7      0.5333      0.0400   1317.0430    703.0000     44.6314
           17           8      0.5333      0.0467   1309.9797    703.0000     44.3258
           17           9      0.5333      0.0533   1303.7558    703.0000     44.0623
           17          10      0.5333      0.0600   1298.4152    703.0000     43.8406
           17          11      0.5333      0.0667   1293.9959    703.0000     43.6603
           17          12      0.5333      0.0733   1290.5293    703.0000     43.5207
           17          13      0.5333      0.0800   1288.0398    703.0000     43.4215
           17          14      0.5333      0.0867   1286.5444    703.0000     43.3624
           17          15      0.5333      0.0933   1286.0531    703.0000     43.3430
           17          16      0.5333      0.1000   1286.5678    703.0000     43.3633
           17          17      0.5333      0.1067   1288.0834    703.0000     43.4233
           17          18      0.5333      0.1133   1290.5868    703.0000     43.5230
           17          19      0.5333      0.1200   1294.0580    703.0000     43.6628
           17          20      0.5333      0.1267   1298.4700    703.0000     43.8429
           17          21      0.5333      0.1333   1303.7888    703.0000     44.0637
           17          22      0.5333      0.1400   1309.9748    703.0000     44.3256
           17          23      0.5333      0.1467   1316.9823    703.0000     44.6287
           17          24      0.5333      0.1533   1324.7610    703.0000     44.9732
           17          25      0.5333      0.1600   1333.2563    703.0000     45.3591
           17          26      0.5333      0.1667   1342.4100    703.0000     45.7860
           17          27      0.5333      0.1733   1352.1615    703.0000     46.2533
           17          28      0.5333      0.1800   1362.4482    703.0000     46.7602
           17          29      0.5333      0.1867   1373.2067    703.0000     47.3054
           17          30      0.5333      0.1933   1384.3735    703.0000     47.8874
           17          31      0.5333      0.2000   1395.8855    703.0000     48.5043
           18           1      0.5667      0.0000   1374.7318    703.0000     47.3839
           18           2      0.5667      0.0067   1363.8616    703.0000     46.8310
           18           3      0.5667      0.0133   1353.4784    703.0000     46.3174
           18           4      0.5667      0.0200   1343.6464    703.0000     45.8445
           18           5      0.5667      0.0267   1334.4283    703.0000     45.4131
           18           6      0.5667      0.0333   1325.8848    703.0000     45.0237
           18           7      0.5667      0.0400   1318.0734    703.0000     44.6765
           18           8      0.5667      0.0467   1311.0479    703.0000     44.3715
           18           9      0.5667      0.0533   1304.8571    703.0000     44.1085
           18          10      0.5667      0.0600   1299.5449    703.0000     43.8872
           18          11      0.5667      0.0667   1295.1487    703.0000     43.7070
           18          12      0.5667      0.0733   1291.6999    703.0000     43.5676
           18          13      0.5667      0.0800   1289.2227    703.0000     43.4685
           18          14      0.5667      0.0867   1287.7342    703.0000     43.4094
           18          15      0.5667      0.0933   1287.2441    703.0000     43.3900
           18          16      0.5667      0.1000   1287.7545    703.0000     43.4102
           18          17      0.5667      0.1067   1289.2602    703.0000     43.4700
           18          18      0.5667      0.1133   1291.7483    703.0000     43.5696
           18          19      0.5667      0.1200   1295.1990    703.0000     43.7091
           18          20      0.5667      0.1267   1299.5853    703.0000     43.8889
           18          21      0.5667      0.1333   1304.8736    703.0000     44.1092
           18          22      0.5667      0.1400   1311.0244    703.0000     44.3705
           18          23      0.5667      0.1467   1317.9925    703.0000     44.6730
           18          24      0.5667      0.1533   1325.7279    703.0000     45.0166
           18          25      0.5667      0.1600   1334.1762    703.0000     45.4015
           18          26      0.5667      0.1667   1343.2798    703.0000     45.8271
           18          27      0.5667      0.1733   1352.9783    703.0000     46.2930
           18          28      0.5667      0.1800   1363.2097    703.0000     46.7983
           18          29      0.5667      0.1867   1373.9109    703.0000     47.3416
           18          30      0.5667      0.1933   1385.0188    703.0000     47.9216
           18          31      0.5667      0.2000   1396.4709    703.0000     48.5362
           19           1      0.6000      0.0000   1376.0111    703.0000     47.4500
           19           2      0.6000      0.0067   1365.2429    703.0000     46.9004
           19           3      0.6000      0.0133   1354.9578    703.0000     46.3897
           19           4      0.6000      0.0200   1345.2190    703.0000     45.9193
           19           5      0.6000      0.0267   1336.0885    703.0000     45.4900
           19           6      0.6000      0.0333   1327.6264    703.0000     45.1023
           19           7      0.6000      0.0400   1319.8893    703.0000     44.7565
           19           8      0.6000      0.0467   1312.9305    703.0000     44.4526
           19           9      0.6000      0.0533   1306.7984    703.0000     44.1904
           19          10      0.6000      0.0600   1301.5360    703.0000     43.9697
           19          11      0.6000      0.0667   1297.1808    703.0000     43.7900
           19          12      0.6000      0.0733   1293.7635    703.0000     43.6508
           19          13      0.6000      0.0800   1291.3082    703.0000     43.5519
           19          14      0.6000      0.0867   1289.8318    703.0000     43.4928
           19          15      0.6000      0.0933   1289.3440    703.0000     43.4734
           19          16      0.6000      0.1000   1289.8468    703.0000     43.4934
           19          17      0.6000      0.1067   1291.3351    703.0000     43.5530
           19          18      0.6000      0.1133   1293.7963    703.0000     43.6522
           19          19      0.6000      0.1200   1297.2107    703.0000     43.7912
           19          20      0.6000      0.1267   1301.5517    703.0000     43.9703
           19          21      0.6000      0.1333   1306.7862    703.0000     44.1899
           19          22      0.6000      0.1400   1312.8750    703.0000     44.4502
           19          23      0.6000      0.1467   1319.7736    703.0000     44.7514
           19          24      0.6000      0.1533   1327.4325    703.0000     45.0935
           19          25      0.6000      0.1600   1335.7980    703.0000     45.4765
           19          26      0.6000      0.1667   1344.8131    703.0000     45.9000
           19          27      0.6000      0.1733   1354.4183    703.0000     46.3633
           19          28      0.6000      0.1800   1364.5521    703.0000     46.8656
           19          29      0.6000      0.1867   1375.1524    703.0000     47.4057
           19          30      0.6000      0.1933   1386.1566    703.0000     47.9819
           19          31      0.6000      0.2000   1397.5030    703.0000     48.5924
           20           1      0.6333      0.0000   1377.9439    703.0000     47.5503
           20           2      0.6333      0.0067   1367.3301    703.0000     47.0057
           20           3      0.6333      0.0133   1357.1932    703.0000     46.4995
           20           4      0.6333      0.0200   1347.5953    703.0000     46.0329
           20           5      0.6333      0.0267   1338.5974    703.0000     45.6068
           20           6      0.6333      0.0333   1330.2583    703.0000     45.2218
           20           7      0.6333      0.0400   1322.6339    703.0000     44.8782
           20           8      0.6333      0.0467   1315.7762    703.0000     44.5760
           20           9      0.6333      0.0533   1309.7328    703.0000     44.3152
           20          10      0.6333      0.0600   1304.5463    703.0000     44.0955
           20          11      0.6333      0.0667   1300.2531    703.0000     43.9165
           20          12      0.6333      0.0733   1296.8837    703.0000     43.7778
           20          13      0.6333      0.0800   1294.4617    703.0000     43.6791
           20          14      0.6333      0.0867   1293.0039    703.0000     43.6201
           20          15      0.6333      0.0933   1292.5196    703.0000     43.6006
           20          16      0.6333      0.1000   1293.0110    703.0000     43.6204
           20          17      0.6333      0.1067   1294.4732    703.0000     43.6796
           20          18      0.6333      0.1133   1296.8937    703.0000     43.7782
           20          19      0.6333      0.1200   1300.2533    703.0000     43.9165
           20          20      0.6333      0.1267   1304.5258    703.0000     44.0946
           20          21      0.6333      0.1333   1309.6788    703.0000     44.3129
           20          22      0.6333      0.1400   1315.6739    703.0000     44.5716
           20          23      0.6333      0.1467   1322.4673    703.0000     44.8708
           20          24      0.6333      0.1533   1330.0105    703.0000     45.2105
           20          25      0.6333      0.1600   1338.2507    703.0000     45.5906
           20          26      0.6333      0.1667   1347.1321    703.0000     46.0107
           20          27      0.6333      0.1733   1356.5960    703.0000     46.4701
           20          28      0.6333      0.1800   1366.5824    703.0000     46.9679
           20          29      0.6333      0.1867   1377.0300    703.0000     47.5029
           20          30      0.6333      0.1933   1387.8774    703.0000     48.0734
           20          31      0.6333      0.2000   1399.0640    703.0000     48.6777
           21           1      0.6667      0.0000   1380.6638    703.0000     47.6923
           21           2      0.6667      0.0067   1370.2673    703.0000     47.1549
           21           3      0.6667      0.0133   1360.3390    703.0000     46.6551
           21           4      0.6667      0.0200   1350.9397    703.0000     46.1941
           21           5      0.6667      0.0267   1342.1286    703.0000     45.7727
           21           6      0.6667      0.0333   1333.9630    703.0000     45.3916
           21           7      0.6667      0.0400   1326.4973    703.0000     45.0513
           21           8      0.6667      0.0467   1319.7823    703.0000     44.7517
           21           9      0.6667      0.0533   1313.8644    703.0000     44.4930
           21          10      0.6667      0.0600   1308.7849    703.0000     44.2748
           21          11      0.6667      0.0667   1304.5796    703.0000     44.0969
           21          12      0.6667      0.0733   1301.2780    703.0000     43.9590
           21          13      0.6667      0.0800   1298.9033    703.0000     43.8607
           21          14      0.6667      0.0867   1297.4718    703.0000     43.8019
           21          15      0.6667      0.0933   1296.9928    703.0000     43.7823
           21          16      0.6667      0.1000   1297.4685    703.0000     43.8018
           21          17      0.6667      0.1067   1298.8940    703.0000     43.8603
           21          18      0.6667      0.1133   1301.2573    703.0000     43.9581
           21          19      0.6667      0.1200   1304.5397    703.0000     44.0952
           21          20      0.6667      0.1267   1308.7159    703.0000     44.2718
           21          21      0.6667      0.1333   1313.7542    703.0000     44.4882
           21          22      0.6667      0.1400   1319.6172    703.0000     44.7445
           21          23      0.6667      0.1467   1326.2625    703.0000     45.0407
           21          24      0.6667      0.1533   1333.6426    703.0000     45.3769
           21          25      0.6667      0.1600   1341.7063    703.0000     45.7528
           21          26      0.6667      0.1667   1350.3993    703.0000     46.1679
           21          27      0.6667      0.1733   1359.6644    703.0000     46.6216
           21          28      0.6667      0.1800   1369.4431    703.0000     47.1129
           21          29      0.6667      0.1867   1379.6757    703.0000     47.6406
           21          30      0.6667      0.1933   1390.3024    703.0000     48.2030
           21          31      0.6667      0.2000   1401.2639    703.0000     48.7984
           22           1      0.7000      0.0000   1384.3279    703.0000     47.8850
           22           2      0.7000      0.0067   1374.2240    703.0000     47.3578
           22           3      0.7000      0.0133   1364.5770    703.0000     46.8669
           22           4      0.7000      0.0200   1355.4454    703.0000     46.4136
           22           5      0.7000      0.0267   1346.8862    703.0000     45.9989
           22           6      0.7000      0.0333   1338.9547    703.0000     45.6235
           22           7      0.7000      0.0400   1331.7034    703.0000     45.2878
           22           8      0.7000      0.0467   1325.1812    703.0000     44.9921
           22           9      0.7000      0.0533   1319.4329    703.0000     44.7363
           22          10      0.7000      0.0600   1314.4982    703.0000     44.5205
           22          11      0.7000      0.0667   1310.4118    703.0000     44.3443
           22          12      0.7000      0.0733   1307.2022    703.0000     44.2075
           22          13      0.7000      0.0800   1304.8918    703.0000     44.1100
           22          14      0.7000      0.0867   1303.4963    703.0000     44.0515
           22          15      0.7000      0.0933   1303.0249    703.0000     44.0317
           22          16      0.7000      0.1000   1303.4797    703.0000     44.0508
           22          17      0.7000      0.1067   1304.8561    703.0000     44.1085
           22          18      0.7000      0.1133   1307.1427    703.0000     44.2050
           22          19      0.7000      0.1200   1310.3214    703.0000     44.3404
           22          20      0.7000      0.1267   1314.3678    703.0000     44.5148
           22          21      0.7000      0.1333   1319.2516    703.0000     44.7283
           22          22      0.7000      0.1400   1324.9368    703.0000     44.9811
           22          23      0.7000      0.1467   1331.3823    703.0000     45.2731
           22          24      0.7000      0.1533   1338.5427    703.0000     45.6042
           22          25      0.7000      0.1600   1346.3687    703.0000     45.9741
           22          26      0.7000      0.1667   1354.8077    703.0000     46.3824
           22          27      0.7000      0.1733   1363.8049    703.0000     46.8281
           22          28      0.7000      0.1800   1373.3036    703.0000     47.3104
           22          29      0.7000      0.1867   1383.2464    703.0000     47.8279
           22          30      0.7000      0.1933   1393.5755    703.0000     48.3792
           22          31      0.7000      0.2000   1404.2337    703.0000     48.9623
           23           1      0.7333      0.0000   1389.1033    703.0000     48.1388
           23           2      0.7333      0.0067   1379.3808    703.0000     47.6252
           23           3      0.7333      0.0133   1370.1004    703.0000     47.1464
           23           4      0.7333      0.0200   1361.3177    703.0000     46.7038
           23           5      0.7333      0.0267   1353.0871    703.0000     46.2983
           23           6      0.7333      0.0333   1345.4612    703.0000     45.9308
           23           7      0.7333      0.0400   1338.4898    703.0000     45.6018
           23           8      0.7333      0.0467   1332.2195    703.0000     45.3115
           23           9      0.7333      0.0533   1326.6928    703.0000     45.0601
           23          10      0.7333      0.0600   1321.9477    703.0000     44.8477
           23          11      0.7333      0.0667   1318.0171    703.0000     44.6740
           23          12      0.7333      0.0733   1314.9282    703.0000     44.5391
           23          13      0.7333      0.0800   1312.7024    703.0000     44.4427
           23          14      0.7333      0.0867   1311.3547    703.0000     44.3847
           23          15      0.7333      0.0933   1310.8940    703.0000     44.3649
           23          16      0.7333      0.1000   1311.3224    703.0000     44.3833
           23          17      0.7333      0.1067   1312.6355    703.0000     44.4399
           23          18      0.7333      0.1133   1314.8226    703.0000     44.5345
           23          19      0.7333      0.1200   1317.8666    703.0000     44.6674
           23          20      0.7333      0.1267   1321.7444    703.0000     44.8386
           23          21      0.7333      0.1333   1326.4272    703.0000     45.0481
           23          22      0.7333      0.1400   1331.8809    703.0000     45.2960
           23          23      0.7333      0.1467   1338.0666    703.0000     45.5820
           23          24      0.7333      0.1533   1344.9409    703.0000     45.9060
           23          25      0.7333      0.1600   1352.4572    703.0000     46.2677
           23          26      0.7333      0.1667   1360.5654    703.0000     46.6664
           23          27      0.7333      0.1733   1369.2133    703.0000     47.1013
           23          28      0.7333      0.1800   1378.3472    703.0000     47.5713
           23          29      0.7333      0.1867   1387.9122    703.0000     48.0752
           23          30      0.7333      0.1933   1397.8532    703.0000     48.6115
           23          31      0.7333      0.2000   1408.1157    703.0000     49.1782
           24           1      0.7667      0.0000   1395.1505    703.0000     48.4644
           24           2      0.7667      0.0067   1385.9108    703.0000     47.9688
           24           3      0.7667      0.0133   1377.0945    703.0000     47.5062
           24           4      0.7667      0.0200   1368.7537    703.0000     47.0779
           24           5      0.7667      0.0267   1360.9394    703.0000     46.6850
           24           6      0.7667      0.0333   1353.7005    703.0000     46.3283
           24           7      0.7667      0.0400   1347.0839    703.0000     46.0084
           24           8      0.7667      0.0467   1341.1329    703.0000     45.7257
           24           9      0.7667      0.0533   1335.8876    703.0000     45.4806
           24          10      0.7667      0.0600   1331.3833    703.0000     45.2732
           24          11      0.7667      0.0667   1327.6509    703.0000     45.1034
           24          12      0.7667      0.0733   1324.7160    703.0000     44.9712
           24          13      0.7667      0.0800   1322.5985    703.0000     44.8766
           24          14      0.7667      0.0867   1321.3126    703.0000     44.8195
           24          15      0.7667      0.0933   1320.8667    703.0000     44.7997
           24          16      0.7667      0.1000   1321.2628    703.0000     44.8172
           24          17      0.7667      0.1067   1322.4971    703.0000     44.8721
           24          18      0.7667      0.1133   1324.5595    703.0000     44.9642
           24          19      0.7667      0.1200   1327.4343    703.0000     45.0936
           24          20      0.7667      0.1267   1331.0998    703.0000     45.2602
           24          21      0.7667      0.1333   1335.5293    703.0000     45.4640
           24          22      0.7667      0.1400   1340.6910    703.0000     45.7049
           24          23      0.7667      0.1467   1346.5485    703.0000     45.9827
           24          24      0.7667      0.1533   1353.0616    703.0000     46.2971
           24          25      0.7667      0.1600   1360.1863    703.0000     46.6475
           24          26      0.7667      0.1667   1367.8762    703.0000     47.0334
           24          27      0.7667      0.1733   1376.0824    703.0000     47.4537
           24          28      0.7667      0.1800   1384.7544    703.0000     47.9076
           24          29      0.7667      0.1867   1393.8410    703.0000     48.3935
           24          30      0.7667      0.1933   1403.2903    703.0000     48.9101
           24          31      0.7667      0.2000   1413.0510    703.0000     49.4555
           25           1      0.8000      0.0000   1402.6057    703.0000     48.8723
           25           2      0.8000      0.0067   1393.9608    703.0000     48.4000
           25           3      0.8000      0.0133   1385.7162    703.0000     47.9585
           25           4      0.8000      0.0200   1377.9197    703.0000     47.5491
           25           5      0.8000      0.0267   1370.6179    703.0000     47.1728
           25           6      0.8000      0.0333   1363.8560    703.0000     46.8307
           25           7      0.8000      0.0400   1357.6765    703.0000     46.5233
           25           8      0.8000      0.0467   1352.1195    703.0000     46.2513
           25           9      0.8000      0.0533   1347.2214    703.0000     46.0150
           25          10      0.8000      0.0600   1343.0146    703.0000     45.8146
           25          11      0.8000      0.0667   1339.5275    703.0000     45.6503
           25          12      0.8000      0.0733   1336.7835    703.0000     45.5222
           25          13      0.8000      0.0800   1334.8009    703.0000     45.4303
           25          14      0.8000      0.0867   1333.5928    703.0000     45.3746
           25          15      0.8000      0.0933   1333.1670    703.0000     45.3550
           25          16      0.8000      0.1000   1333.5254    703.0000     45.3715
           25          17      0.8000      0.1067   1334.6647    703.0000     45.4240
           25          18      0.8000      0.1133   1336.5756    703.0000     45.5126
           25          19      0.8000      0.1200   1339.2440    703.0000     45.6370
           25          20      0.8000      0.1267   1342.6502    703.0000     45.7973
           25          21      0.8000      0.1333   1346.7698    703.0000     45.9933
           25          22      0.8000      0.1400   1351.5738    703.0000     46.2248
           25          23      0.8000      0.1467   1357.0290    703.0000     46.4914
           25          24      0.8000      0.1533   1363.0986    703.0000     46.7927
           25          25      0.8000      0.1600   1369.7426    703.0000     47.1282
           25          26      0.8000      0.1667   1376.9183    703.0000     47.4971
           25          27      0.8000      0.1733   1384.5810    703.0000     47.8984
           25          28      0.8000      0.1800   1392.6844    703.0000     48.3311
           25          29      0.8000      0.1867   1401.1814    703.0000     48.7938
           25          30      0.8000      0.1933   1410.0243    703.0000     49.2851
           25          31      0.8000      0.2000   1419.1656    703.0000     49.8032
           26           1      0.8333      0.0000   1411.5615    703.0000     49.3715
           26           2      0.8333      0.0067   1403.6302    703.0000     48.9289
           26           3      0.8333      0.0133   1396.0711    703.0000     48.5144
           26           4      0.8333      0.0200   1388.9271    703.0000     48.1294
           26           5      0.8333      0.0267   1382.2399    703.0000     47.7750
           26           6      0.8333      0.0333   1376.0496    703.0000     47.4520
           26           7      0.8333      0.0400   1370.3945    703.0000     47.1614
           26           8      0.8333      0.0467   1365.3101    703.0000     46.9037
           26           9      0.8333      0.0533   1360.8288    703.0000     46.6795
           26          10      0.8333      0.0600   1356.9797    703.0000     46.4890
           26          11      0.8333      0.0667   1353.7879    703.0000     46.3325
           26          12      0.8333      0.0733   1351.2743    703.0000     46.2103
           26          13      0.8333      0.0800   1349.4554    703.0000     46.1223
           26          14      0.8333      0.0867   1348.3429    703.0000     46.0688
           26          15      0.8333      0.0933   1347.9437    703.0000     46.0496
           26          16      0.8333      0.1000   1348.2597    703.0000     46.0648
           26          17      0.8333      0.1067   1349.2880    703.0000     46.1143
           26          18      0.8333      0.1133   1351.0206    703.0000     46.1980
           26          19      0.8333      0.1200   1353.4448    703.0000     46.3158
           26          20      0.8333      0.1267   1356.5433    703.0000     46.4675
           26          21      0.8333      0.1333   1360.2945    703.0000     46.6529
           26          22      0.8333      0.1400   1364.6727    703.0000     46.8717
           26          23      0.8333      0.1467   1369.6485    703.0000     47.1234
           26          24      0.8333      0.1533   1375.1890    703.0000     47.4075
           26          25      0.8333      0.1600   1381.2588    703.0000     47.7235
           26          26      0.8333      0.1667   1387.8197    703.0000     48.0703
           26          27      0.8333      0.1733   1394.8319    703.0000     48.4472
           26          28      0.8333      0.1800   1402.2540    703.0000     48.8529
           26          29      0.8333      0.1867   1410.0436    703.0000     49.2862
           26          30      0.8333      0.1933   1418.1580    703.0000     49.7456
           26          31      0.8333      0.2000   1426.5545    703.0000     50.2295
           27           1      0.8667      0.0000   1422.0474    703.0000     49.9687
           27           2      0.8667      0.0067   1414.9498    703.0000     49.5630
           27           3      0.8667      0.0133   1408.1911    703.0000     49.1825
           27           4      0.8667      0.0200   1401.8085    703.0000     48.8283
           27           5      0.8667      0.0267   1395.8381    703.0000     48.5018
           27           6      0.8667      0.0333   1390.3146    703.0000     48.2037
           27           7      0.8667      0.0400   1385.2710    703.0000     47.9349
           27           8      0.8667      0.0467   1380.7378    703.0000     47.6962
           27           9      0.8667      0.0533   1376.7432    703.0000     47.4880
           27          10      0.8667      0.0600   1373.3120    703.0000     47.3108
           27          11      0.8667      0.0667   1370.4658    703.0000     47.1651
           27          12      0.8667      0.0733   1368.2228    703.0000     47.0509
           27          13      0.8667      0.0800   1366.5971    703.0000     46.9686
           27          14      0.8667      0.0867   1365.5987    703.0000     46.9183
           27          15      0.8667      0.0933   1365.2338    703.0000     46.8999
           27          16      0.8667      0.1000   1365.5040    703.0000     46.9135
           27          17      0.8667      0.1067   1366.4068    703.0000     46.9590
           27          18      0.8667      0.1133   1367.9356    703.0000     47.0364
           27          19      0.8667      0.1200   1370.0796    703.0000     47.1454
           27          20      0.8667      0.1267   1372.8239    703.0000     47.2858
           27          21      0.8667      0.1333   1376.1502    703.0000     47.4572
           27          22      0.8667      0.1400   1380.0362    703.0000     47.6594
           27          23      0.8667      0.1467   1384.4570    703.0000     47.8918
           27          24      0.8667      0.1533   1389.3842    703.0000     48.1538
           27          25      0.8667      0.1600   1394.7873    703.0000     48.4448
           27          26      0.8667      0.1667   1400.6334    703.0000     48.7637
           27          27      0.8667      0.1733   1406.8882    703.0000     49.1098
           27          28      0.8667      0.1800   1413.5157    703.0000     49.4818
           27          29      0.8667      0.1867   1420.4792    703.0000     49.8785
           27          30      0.8667      0.1933   1427.7414    703.0000     50.2986
           27          31      0.8667      0.2000   1435.2648    703.0000     50.7406
           28           1      0.9000      0.0000   1434.0115    703.0000     50.6665
           28           2      0.9000      0.0067   1427.8623    703.0000     50.3057
           28           3      0.9000      0.0133   1422.0128    703.0000     49.9667
           28           4      0.9000      0.0200   1416.4943    703.0000     49.6508
           28           5      0.9000      0.0267   1411.3367    703.0000     49.3589
           28           6      0.9000      0.0333   1406.5689    703.0000     49.0920
           28           7      0.9000      0.0400   1402.2181    703.0000     48.8509
           28           8      0.9000      0.0467   1398.3097    703.0000     48.6364
           28           9      0.9000      0.0533   1394.8666    703.0000     48.4491
           28          10      0.9000      0.0600   1391.9095    703.0000     48.2893
           28          11      0.9000      0.0667   1389.4561    703.0000     48.1577
           28          12      0.9000      0.0733   1387.5213    703.0000     48.0544
           28          13      0.9000      0.0800   1386.1168    703.0000     47.9798
           28          14      0.9000      0.0867   1385.2509    703.0000     47.9338
           28          15      0.9000      0.0933   1384.9286    703.0000     47.9168
           28          16      0.9000      0.1000   1385.1513    703.0000     47.9286
           28          17      0.9000      0.1067   1385.9171    703.0000     47.9692
           28          18      0.9000      0.1133   1387.2206    703.0000     48.0384
           28          19      0.9000      0.1200   1389.0530    703.0000     48.1361
           28          20      0.9000      0.1267   1391.4021    703.0000     48.2621
           28          21      0.9000      0.1333   1394.2528    703.0000     48.4158
           28          22      0.9000      0.1400   1397.5872    703.0000     48.5970
           28          23      0.9000      0.1467   1401.3844    703.0000     48.8050
           28          24      0.9000      0.1533   1405.6213    703.0000     49.0393
           28          25      0.9000      0.1600   1410.2727    703.0000     49.2991
           28          26      0.9000      0.1667   1415.3115    703.0000     49.5835
           28          27      0.9000      0.1733   1420.7090    703.0000     49.8917
           28          28      0.9000      0.1800   1426.4354    703.0000     50.2226
           28          29      0.9000      0.1867   1432.4601    703.0000     50.5751
           28          30      0.9000      0.1933   1438.7518    703.0000     50.9478
           28          31      0.9000      0.2000   1445.2788    703.0000     51.3394
           29           1      0.9333      0.0000   1447.3044    703.0000     51.4619
           29           2      0.9333      0.0067   1442.2042    703.0000     51.1543
           29           3      0.9333      0.0133   1437.3589    703.0000     50.8648
           29           4      0.9333      0.0200   1432.7931    703.0000     50.5947
           29           5      0.9333      0.0267   1428.5306    703.0000     50.3447
           29           6      0.9333      0.0333   1424.5941    703.0000     50.1158
           29           7      0.9333      0.0400   1421.0049    703.0000     49.9087
           29           8      0.9333      0.0467   1417.7827    703.0000     49.7242
           29           9      0.9333      0.0533   1414.9456    703.0000     49.5628
           29          10      0.9333      0.0600   1412.5096    703.0000     49.4250
           29          11      0.9333      0.0667   1410.4885    703.0000     49.3112
           29          12      0.9333      0.0733   1408.8938    703.0000     49.2218
           29          13      0.9333      0.0800   1407.7346    703.0000     49.1570
           29          14      0.9333      0.0867   1407.0175    703.0000     49.1170
           29          15      0.9333      0.0933   1406.7461    703.0000     49.1018
           29          16      0.9333      0.1000   1406.9218    703.0000     49.1116
           29          17      0.9333      0.1067   1407.5430    703.0000     49.1463
           29          18      0.9333      0.1133   1408.6056    703.0000     49.2056
           29          19      0.9333      0.1200   1410.1026    703.0000     49.2895
           29          20      0.9333      0.1267   1412.0249    703.0000     49.3976
           29          21      0.9333      0.1333   1414.3607    703.0000     49.5296
           29          22      0.9333      0.1400   1417.0959    703.0000     49.6850
           29          23      0.9333      0.1467   1420.2145    703.0000     49.8633
           29          24      0.9333      0.1533   1423.6984    703.0000     50.0640
           29          25      0.9333      0.1600   1427.5279    703.0000     50.2862
           29          26      0.9333      0.1667   1431.6817    703.0000     50.5293
           29          27      0.9333      0.1733   1436.1373    703.0000     50.7923
           29          28      0.9333      0.1800   1440.8712    703.0000     51.0744
           29          29      0.9333      0.1867   1445.8591    703.0000     51.3744
           29          30      0.9333      0.1933   1451.0759    703.0000     51.6914
           29          31      0.9333      0.2000   1456.4966    703.0000     52.0241
           30           1      0.9667      0.0000   1461.6717    703.0000     52.3449
           30           2      0.9667      0.0067   1457.6987    703.0000     52.0984
           30           3      0.9667      0.0133   1453.9300    703.0000     51.8662
           30           4      0.9667      0.0200   1450.3834    703.0000     51.6492
           30           5      0.9667      0.0267   1447.0766    703.0000     51.4481
           30           6      0.9667      0.0333   1444.0261    703.0000     51.2638
           30           7      0.9667      0.0400   1441.2474    703.0000     51.0969
           30           8      0.9667      0.0467   1438.7549    703.0000     50.9479
           30           9      0.9667      0.0533   1436.5617    703.0000     50.8175
           30          10      0.9667      0.0600   1434.6793    703.0000     50.7060
           30          11      0.9667      0.0667   1433.1178    703.0000     50.6138
           30          12      0.9667      0.0733   1431.8855    703.0000     50.5412
           30          13      0.9667      0.0800   1430.9889    703.0000     50.4886
           30          14      0.9667      0.0867   1430.4327    703.0000     50.4560
           30          15      0.9667      0.0933   1430.2196    703.0000     50.4435
           30          16      0.9667      0.1000   1430.3506    703.0000     50.4512
           30          17      0.9667      0.1067   1430.8245    703.0000     50.4789
           30          18      0.9667      0.1133   1431.6384    703.0000     50.5267
           30          19      0.9667      0.1200   1432.7872    703.0000     50.5943
           30          20      0.9667      0.1267   1434.2643    703.0000     50.6814
           30          21      0.9667      0.1333   1436.0611    703.0000     50.7878
           30          22      0.9667      0.1400   1438.1676    703.0000     50.9130
           30          23      0.9667      0.1467   1440.5720    703.0000     51.0565
           30          24      0.9667      0.1533   1443.2611    703.0000     51.2178
           30          25      0.9667      0.1600   1446.2207    703.0000     51.3963
           30          26      0.9667      0.1667   1449.4351    703.0000     51.5914
           30          27      0.9667      0.1733   1452.8878    703.0000     51.8022
           30          28      0.9667      0.1800   1456.5614    703.0000     52.0281
           30          29      0.9667      0.1867   1460.4381    703.0000     52.2682
           30          30      0.9667      0.1933   1464.4992    703.0000     52.5215
           30          31      0.9667      0.2000   1468.7259    703.0000     52.7871
           31           1      1.0000      0.0000   1476.7736    703.0000     53.2983
           31           2      1.0000      0.0067   1473.9773    703.0000     53.1199
           31           3      1.0000      0.0133   1471.3285    703.0000     52.9516
           31           4      1.0000      0.0200   1468.8391    703.0000     52.7942
           31           5      1.0000      0.0267   1466.5204    703.0000     52.6482
           31           6      1.0000      0.0333   1464.3836    703.0000     52.5142
           31           7      1.0000      0.0400   1462.4389    703.0000     52.3927
           31           8      1.0000      0.0467   1460.6957    703.0000     52.2842
           31           9      1.0000      0.0533   1459.1628    703.0000     52.1890
           31          10      1.0000      0.0600   1457.8477    703.0000     52.1076
           31          11      1.0000      0.0667   1456.7572    703.0000     52.0402
           31          12      1.0000      0.0733   1455.8967    703.0000     51.9871
           31          13      1.0000      0.0800   1455.2704    703.0000     51.9486
           31          14      1.0000      0.0867   1454.8816    703.0000     51.9246
           31          15      1.0000      0.0933   1454.7319    703.0000     51.9154
           31          16      1.0000      0.1000   1454.8220    703.0000     51.9210
           31          17      1.0000      0.1067   1455.1512    703.0000     51.9412
           31          18      1.0000      0.1133   1455.7173    703.0000     51.9761
           31          19      1.0000      0.1200   1456.5172    703.0000     52.0254
           31          20      1.0000      0.1267   1457.5463    703.0000     52.0889
           31          21      1.0000      0.1333   1458.7992    703.0000     52.1665
           31          22      1.0000      0.1400   1460.2688    703.0000     52.2576
           31          23      1.0000      0.1467   1461.9476    703.0000     52.3621
           31          24      1.0000      0.1533   1463.8268    703.0000     52.4794
           31          25      1.0000      0.1600   1465.8966    703.0000     52.6090
           31          26      1.0000      0.1667   1468.1468    703.0000     52.7506
           31          27      1.0000      0.1733   1470.5662    703.0000     52.9033
           31          28      1.0000      0.1800   1473.1431    703.0000     53.0668
           31          29      1.0000      0.1867   1475.8655    703.0000     53.2403
           31          30      1.0000      0.1933   1478.7208    703.0000     53.4231
           31          31      1.0000      0.2000   1481.6962    703.0000     53.6146
