 ====================================================================================
               Transient state solution for a 2D rectangular plate
                    for applications in steel reheating
                 e.g. Reheating furnaces for rolling processing
 ====================================================================================
 Author: Dickson Alves de Souza

 Based on lectures by professor Roberto Parreiras Tavares

 and book Numerical Heat Transfer and Fluid Flow
 by Suhas V. Patankar (1980)

 Federal University of Minas Gerais (UFMG)
 October 26th, 2017
 ====================================================================================
                              Input parameters:

 Lenght in X direction (meters):           1.0000
 Lenght in Y direction (meters):           0.2000
 Nodes in X direction:                         31
 Nodes in Y direction:                         31
 ====================================================================================

                       STAGE                1/  5
                       START Time:         0.0000
                       END Time:        1140.0000
                       Iterations:             2016

 ====================================================================================
 Temperature of fluid at left face (T left):             1223.1500
 Temperature of fluid at right face (T right):           1223.1500
 Temperature of fluid at bottom face (T bottom):         1223.1500
 Temperature of fluid at top face (T top):               1223.1500
 ------------------------------------------------------------------------------------
 Heat transfer coefficient at left face (H left):          50.0000
 Heat transfer coefficient at right face (H right):        50.0000
 Heat transfer coefficient at bottom face (H bottom):       8.0000
 Heat transfer coefficient at top face (H top):           150.0000
 ====================================================================================


 ====================================================================================

                       STAGE                2/  5
                       START Time:      1140.0000
                       END Time:        3060.0000
                       Iterations:             2016

 ====================================================================================
 Temperature of fluid at left face (T left):             1423.1500
 Temperature of fluid at right face (T right):           1423.1500
 Temperature of fluid at bottom face (T bottom):         1423.1500
 Temperature of fluid at top face (T top):               1423.1500
 ------------------------------------------------------------------------------------
 Heat transfer coefficient at left face (H left):          50.0000
 Heat transfer coefficient at right face (H right):        50.0000
 Heat transfer coefficient at bottom face (H bottom):       8.0000
 Heat transfer coefficient at top face (H top):           150.0000
 ====================================================================================


 ====================================================================================

                       STAGE                3/  5
                       START Time:      3060.0000
                       END Time:        4980.0000
                       Iterations:             2016

 ====================================================================================
 Temperature of fluid at left face (T left):             1513.1500
 Temperature of fluid at right face (T right):           1513.1500
 Temperature of fluid at bottom face (T bottom):         1513.1500
 Temperature of fluid at top face (T top):               1513.1500
 ------------------------------------------------------------------------------------
 Heat transfer coefficient at left face (H left):          50.0000
 Heat transfer coefficient at right face (H right):        50.0000
 Heat transfer coefficient at bottom face (H bottom):       8.0000
 Heat transfer coefficient at top face (H top):           150.0000
 ====================================================================================


 ====================================================================================

                       STAGE                4/  5
                       START Time:      4980.0000
                       END Time:        8400.0000
                       Iterations:             2016

 ====================================================================================
 Temperature of fluid at left face (T left):             1503.1500
 Temperature of fluid at right face (T right):           1503.1500
 Temperature of fluid at bottom face (T bottom):         1503.1500
 Temperature of fluid at top face (T top):               1523.1500
 ------------------------------------------------------------------------------------
 Heat transfer coefficient at left face (H left):          50.0000
 Heat transfer coefficient at right face (H right):        50.0000
 Heat transfer coefficient at bottom face (H bottom):       8.0000
 Heat transfer coefficient at top face (H top):           150.0000
 ====================================================================================


 ====================================================================================

                       STAGE                5/  5
                       START Time:      8400.0000
                       END Time:       18400.0000
                       Iterations:             2016

 ====================================================================================
 Temperature of fluid at left face (T left):             1393.1500
 Temperature of fluid at right face (T right):           1393.1500
 Temperature of fluid at bottom face (T bottom):         1393.1500
 Temperature of fluid at top face (T top):               1433.1500
 ------------------------------------------------------------------------------------
 Heat transfer coefficient at left face (H left):          50.0000
 Heat transfer coefficient at right face (H right):        50.0000
 Heat transfer coefficient at bottom face (H bottom):       8.0000
 Heat transfer coefficient at top face (H top):           150.0000
 ====================================================================================


 SOLUTION of LINEAR SYSTEM: TDMA (tri-diagonal matrix algorithm)
      ADI approach employed in solution.
 Tolerance:       0.0010

 ====================================================================================
                    Calculation Results
 Current time:    13600.000000000000       seconds
 Maximum Temperature :    1426.5615101545113
 Minimum Temperature :    1397.3540108773420
 Average(algebraic, non-weigthed) Temperature :    1413.3025145065085
 ====================================================================================
            I           J        X(m)        Y(m)        T(K)  Cp(J/kg.K) K(W/sq-m.K)
 ====================================================================================
            1           1      0.0000      0.0000   1397.3540    703.0000     48.5843
            1           2      0.0000      0.0067   1397.6522    703.0000     48.6005
            1           3      0.0000      0.0133   1397.9550    703.0000     48.6170
            1           4      0.0000      0.0200   1398.2628    703.0000     48.6339
            1           5      0.0000      0.0267   1398.5761    703.0000     48.6510
            1           6      0.0000      0.0333   1398.8954    703.0000     48.6684
            1           7      0.0000      0.0400   1399.2212    703.0000     48.6863
            1           8      0.0000      0.0467   1399.5542    703.0000     48.7045
            1           9      0.0000      0.0533   1399.8951    703.0000     48.7232
            1          10      0.0000      0.0600   1400.2447    703.0000     48.7424
            1          11      0.0000      0.0667   1400.6041    703.0000     48.7621
            1          12      0.0000      0.0733   1400.9743    703.0000     48.7824
            1          13      0.0000      0.0800   1401.3566    703.0000     48.8035
            1          14      0.0000      0.0867   1401.7522    703.0000     48.8252
            1          15      0.0000      0.0933   1402.1630    703.0000     48.8479
            1          16      0.0000      0.1000   1402.5907    703.0000     48.8715
            1          17      0.0000      0.1067   1403.0374    703.0000     48.8961
            1          18      0.0000      0.1133   1403.5058    703.0000     48.9220
            1          19      0.0000      0.1200   1403.9988    703.0000     48.9493
            1          20      0.0000      0.1267   1404.5199    703.0000     48.9782
            1          21      0.0000      0.1333   1405.0734    703.0000     49.0088
            1          22      0.0000      0.1400   1405.6644    703.0000     49.0417
            1          23      0.0000      0.1467   1406.2991    703.0000     49.0770
            1          24      0.0000      0.1533   1406.9855    703.0000     49.1152
            1          25      0.0000      0.1600   1407.7333    703.0000     49.1569
            1          26      0.0000      0.1667   1408.5551    703.0000     49.2028
            1          27      0.0000      0.1733   1409.4672    703.0000     49.2539
            1          28      0.0000      0.1800   1410.4907    703.0000     49.3113
            1          29      0.0000      0.1867   1411.6537    703.0000     49.3767
            1          30      0.0000      0.1933   1412.9940    703.0000     49.4523
            1          31      0.0000      0.2000   1414.5626    703.0000     49.5410
            2           1      0.0333      0.0000   1398.8759    703.0000     48.6674
            2           2      0.0333      0.0067   1399.2817    703.0000     48.6896
            2           3      0.0333      0.0133   1399.6934    703.0000     48.7121
            2           4      0.0333      0.0200   1400.1112    703.0000     48.7350
            2           5      0.0333      0.0267   1400.5359    703.0000     48.7584
            2           6      0.0333      0.0333   1400.9680    703.0000     48.7821
            2           7      0.0333      0.0400   1401.4083    703.0000     48.8063
            2           8      0.0333      0.0467   1401.8574    703.0000     48.8310
            2           9      0.0333      0.0533   1402.3163    703.0000     48.8563
            2          10      0.0333      0.0600   1402.7859    703.0000     48.8822
            2          11      0.0333      0.0667   1403.2674    703.0000     48.9088
            2          12      0.0333      0.0733   1403.7621    703.0000     48.9362
            2          13      0.0333      0.0800   1404.2712    703.0000     48.9644
            2          14      0.0333      0.0867   1404.7963    703.0000     48.9935
            2          15      0.0333      0.0933   1405.3392    703.0000     49.0236
            2          16      0.0333      0.1000   1405.9018    703.0000     49.0549
            2          17      0.0333      0.1067   1406.4862    703.0000     49.0874
            2          18      0.0333      0.1133   1407.0949    703.0000     49.1213
            2          19      0.0333      0.1200   1407.7306    703.0000     49.1567
            2          20      0.0333      0.1267   1408.3963    703.0000     49.1939
            2          21      0.0333      0.1333   1409.0953    703.0000     49.2330
            2          22      0.0333      0.1400   1409.8315    703.0000     49.2743
            2          23      0.0333      0.1467   1410.6088    703.0000     49.3179
            2          24      0.0333      0.1533   1411.4320    703.0000     49.3642
            2          25      0.0333      0.1600   1412.3058    703.0000     49.4135
            2          26      0.0333      0.1667   1413.2355    703.0000     49.4659
            2          27      0.0333      0.1733   1414.2265    703.0000     49.5220
            2          28      0.0333      0.1800   1415.2841    703.0000     49.5820
            2          29      0.0333      0.1867   1416.4130    703.0000     49.6461
            2          30      0.0333      0.1933   1417.6167    703.0000     49.7147
            2          31      0.0333      0.2000   1418.8961    703.0000     49.7878
            3           1      0.0667      0.0000   1400.1926    703.0000     48.7395
            3           2      0.0667      0.0067   1400.6910    703.0000     48.7669
            3           3      0.0667      0.0133   1401.1951    703.0000     48.7946
            3           4      0.0667      0.0200   1401.7051    703.0000     48.8227
            3           5      0.0667      0.0267   1402.2218    703.0000     48.8511
            3           6      0.0667      0.0333   1402.7455    703.0000     48.8800
            3           7      0.0667      0.0400   1403.2771    703.0000     48.9094
            3           8      0.0667      0.0467   1403.8171    703.0000     48.9392
            3           9      0.0667      0.0533   1404.3664    703.0000     48.9696
            3          10      0.0667      0.0600   1404.9257    703.0000     49.0007
            3          11      0.0667      0.0667   1405.4960    703.0000     49.0323
            3          12      0.0667      0.0733   1406.0784    703.0000     49.0647
            3          13      0.0667      0.0800   1406.6739    703.0000     49.0978
            3          14      0.0667      0.0867   1407.2837    703.0000     49.1318
            3          15      0.0667      0.0933   1407.9091    703.0000     49.1667
            3          16      0.0667      0.1000   1408.5514    703.0000     49.2026
            3          17      0.0667      0.1067   1409.2122    703.0000     49.2396
            3          18      0.0667      0.1133   1409.8929    703.0000     49.2777
            3          19      0.0667      0.1200   1410.5954    703.0000     49.3172
            3          20      0.0667      0.1267   1411.3212    703.0000     49.3580
            3          21      0.0667      0.1333   1412.0721    703.0000     49.4003
            3          22      0.0667      0.1400   1412.8500    703.0000     49.4442
            3          23      0.0667      0.1467   1413.6567    703.0000     49.4897
            3          24      0.0667      0.1533   1414.4938    703.0000     49.5371
            3          25      0.0667      0.1600   1415.3632    703.0000     49.5865
            3          26      0.0667      0.1667   1416.2661    703.0000     49.6378
            3          27      0.0667      0.1733   1417.2038    703.0000     49.6912
            3          28      0.0667      0.1800   1418.1768    703.0000     49.7467
            3          29      0.0667      0.1867   1419.1854    703.0000     49.8044
            3          30      0.0667      0.1933   1420.2290    703.0000     49.8642
            3          31      0.0667      0.2000   1421.3059    703.0000     49.9260
            4           1      0.1000      0.0000   1401.2915    703.0000     48.7999
            4           2      0.1000      0.0067   1401.8667    703.0000     48.8316
            4           3      0.1000      0.0133   1402.4463    703.0000     48.8635
            4           4      0.1000      0.0200   1403.0307    703.0000     48.8958
            4           5      0.1000      0.0267   1403.6203    703.0000     48.9283
            4           6      0.1000      0.0333   1404.2155    703.0000     48.9613
            4           7      0.1000      0.0400   1404.8168    703.0000     48.9946
            4           8      0.1000      0.0467   1405.4247    703.0000     49.0284
            4           9      0.1000      0.0533   1406.0399    703.0000     49.0625
            4          10      0.1000      0.0600   1406.6628    703.0000     49.0972
            4          11      0.1000      0.0667   1407.2942    703.0000     49.1324
            4          12      0.1000      0.0733   1407.9347    703.0000     49.1681
            4          13      0.1000      0.0800   1408.5851    703.0000     49.2045
            4          14      0.1000      0.0867   1409.2461    703.0000     49.2415
            4          15      0.1000      0.0933   1409.9186    703.0000     49.2792
            4          16      0.1000      0.1000   1410.6033    703.0000     49.3176
            4          17      0.1000      0.1067   1411.3012    703.0000     49.3569
            4          18      0.1000      0.1133   1412.0130    703.0000     49.3969
            4          19      0.1000      0.1200   1412.7396    703.0000     49.4379
            4          20      0.1000      0.1267   1413.4820    703.0000     49.4799
            4          21      0.1000      0.1333   1414.2408    703.0000     49.5228
            4          22      0.1000      0.1400   1415.0170    703.0000     49.5668
            4          23      0.1000      0.1467   1415.8110    703.0000     49.6119
            4          24      0.1000      0.1533   1416.6236    703.0000     49.6581
            4          25      0.1000      0.1600   1417.4551    703.0000     49.7055
            4          26      0.1000      0.1667   1418.3059    703.0000     49.7541
            4          27      0.1000      0.1733   1419.1760    703.0000     49.8038
            4          28      0.1000      0.1800   1420.0651    703.0000     49.8548
            4          29      0.1000      0.1867   1420.9730    703.0000     49.9069
            4          30      0.1000      0.1933   1421.8987    703.0000     49.9601
            4          31      0.1000      0.2000   1422.8412    703.0000     50.0145
            5           1      0.1333      0.0000   1402.1838    703.0000     48.8490
            5           2      0.1333      0.0067   1402.8209    703.0000     48.8842
            5           3      0.1333      0.0133   1403.4608    703.0000     48.9195
            5           4      0.1333      0.0200   1404.1037    703.0000     48.9551
            5           5      0.1333      0.0267   1404.7498    703.0000     48.9909
            5           6      0.1333      0.0333   1405.3995    703.0000     49.0269
            5           7      0.1333      0.0400   1406.0530    703.0000     49.0633
            5           8      0.1333      0.0467   1406.7107    703.0000     49.0999
            5           9      0.1333      0.0533   1407.3729    703.0000     49.1368
            5          10      0.1333      0.0600   1408.0401    703.0000     49.1740
            5          11      0.1333      0.0667   1408.7125    703.0000     49.2116
            5          12      0.1333      0.0733   1409.3908    703.0000     49.2496
            5          13      0.1333      0.0800   1410.0752    703.0000     49.2880
            5          14      0.1333      0.0867   1410.7663    703.0000     49.3268
            5          15      0.1333      0.0933   1411.4645    703.0000     49.3660
            5          16      0.1333      0.1000   1412.1702    703.0000     49.4058
            5          17      0.1333      0.1067   1412.8839    703.0000     49.4461
            5          18      0.1333      0.1133   1413.6062    703.0000     49.4869
            5          19      0.1333      0.1200   1414.3373    703.0000     49.5283
            5          20      0.1333      0.1267   1415.0777    703.0000     49.5703
            5          21      0.1333      0.1333   1415.8277    703.0000     49.6128
            5          22      0.1333      0.1400   1416.5878    703.0000     49.6561
            5          23      0.1333      0.1467   1417.3580    703.0000     49.7000
            5          24      0.1333      0.1533   1418.1386    703.0000     49.7445
            5          25      0.1333      0.1600   1418.9297    703.0000     49.7897
            5          26      0.1333      0.1667   1419.7313    703.0000     49.8356
            5          27      0.1333      0.1733   1420.5432    703.0000     49.8822
            5          28      0.1333      0.1800   1421.3652    703.0000     49.9294
            5          29      0.1333      0.1867   1422.1969    703.0000     49.9773
            5          30      0.1333      0.1933   1423.0379    703.0000     50.0258
            5          31      0.1333      0.2000   1423.8875    703.0000     50.0749
            6           1      0.1667      0.0000   1402.8942    703.0000     48.8882
            6           2      0.1667      0.0067   1403.5805    703.0000     48.9261
            6           3      0.1667      0.0133   1404.2677    703.0000     48.9642
            6           4      0.1667      0.0200   1404.9559    703.0000     49.0023
            6           5      0.1667      0.0267   1405.6454    703.0000     49.0406
            6           6      0.1667      0.0333   1406.3362    703.0000     49.0790
            6           7      0.1667      0.0400   1407.0284    703.0000     49.1176
            6           8      0.1667      0.0467   1407.7224    703.0000     49.1563
            6           9      0.1667      0.0533   1408.4183    703.0000     49.1952
            6          10      0.1667      0.0600   1409.1162    703.0000     49.2342
            6          11      0.1667      0.0667   1409.8165    703.0000     49.2735
            6          12      0.1667      0.0733   1410.5193    703.0000     49.3129
            6          13      0.1667      0.0800   1411.2250    703.0000     49.3526
            6          14      0.1667      0.0867   1411.9336    703.0000     49.3925
            6          15      0.1667      0.0933   1412.6456    703.0000     49.4326
            6          16      0.1667      0.1000   1413.3611    703.0000     49.4730
            6          17      0.1667      0.1067   1414.0804    703.0000     49.5137
            6          18      0.1667      0.1133   1414.8037    703.0000     49.5547
            6          19      0.1667      0.1200   1415.5312    703.0000     49.5960
            6          20      0.1667      0.1267   1416.2632    703.0000     49.6376
            6          21      0.1667      0.1333   1416.9998    703.0000     49.6795
            6          22      0.1667      0.1400   1417.7412    703.0000     49.7218
            6          23      0.1667      0.1467   1418.4874    703.0000     49.7644
            6          24      0.1667      0.1533   1419.2385    703.0000     49.8074
            6          25      0.1667      0.1600   1419.9946    703.0000     49.8507
            6          26      0.1667      0.1667   1420.7556    703.0000     49.8944
            6          27      0.1667      0.1733   1421.5214    703.0000     49.9384
            6          28      0.1667      0.1800   1422.2919    703.0000     49.9828
            6          29      0.1667      0.1867   1423.0670    703.0000     50.0275
            6          30      0.1667      0.1933   1423.8462    703.0000     50.0725
            6          31      0.1667      0.2000   1424.6294    703.0000     50.1178
            7           1      0.2000      0.0000   1403.4520    703.0000     48.9190
            7           2      0.2000      0.0067   1404.1768    703.0000     48.9591
            7           3      0.2000      0.0133   1404.9007    703.0000     48.9993
            7           4      0.2000      0.0200   1405.6239    703.0000     49.0394
            7           5      0.2000      0.0267   1406.3464    703.0000     49.0796
            7           6      0.2000      0.0333   1407.0682    703.0000     49.1198
            7           7      0.2000      0.0400   1407.7893    703.0000     49.1600
            7           8      0.2000      0.0467   1408.5099    703.0000     49.2003
            7           9      0.2000      0.0533   1409.2300    703.0000     49.2406
            7          10      0.2000      0.0600   1409.9497    703.0000     49.2809
            7          11      0.2000      0.0667   1410.6691    703.0000     49.3213
            7          12      0.2000      0.0733   1411.3883    703.0000     49.3618
            7          13      0.2000      0.0800   1412.1074    703.0000     49.4023
            7          14      0.2000      0.0867   1412.8265    703.0000     49.4428
            7          15      0.2000      0.0933   1413.5459    703.0000     49.4835
            7          16      0.2000      0.1000   1414.2656    703.0000     49.5242
            7          17      0.2000      0.1067   1414.9857    703.0000     49.5650
            7          18      0.2000      0.1133   1415.7064    703.0000     49.6059
            7          19      0.2000      0.1200   1416.4278    703.0000     49.6470
            7          20      0.2000      0.1267   1417.1501    703.0000     49.6881
            7          21      0.2000      0.1333   1417.8732    703.0000     49.7294
            7          22      0.2000      0.1400   1418.5975    703.0000     49.7707
            7          23      0.2000      0.1467   1419.3228    703.0000     49.8122
            7          24      0.2000      0.1533   1420.0493    703.0000     49.8539
            7          25      0.2000      0.1600   1420.7771    703.0000     49.8956
            7          26      0.2000      0.1667   1421.5061    703.0000     49.9375
            7          27      0.2000      0.1733   1422.2363    703.0000     49.9796
            7          28      0.2000      0.1800   1422.9678    703.0000     50.0218
            7          29      0.2000      0.1867   1423.7004    703.0000     50.0641
            7          30      0.2000      0.1933   1424.4341    703.0000     50.1065
            7          31      0.2000      0.2000   1425.1688    703.0000     50.1491
            8           1      0.2333      0.0000   1403.8857    703.0000     48.9430
            8           2      0.2333      0.0067   1404.6403    703.0000     48.9848
            8           3      0.2333      0.0133   1405.3926    703.0000     49.0266
            8           4      0.2333      0.0200   1406.1426    703.0000     49.0682
            8           5      0.2333      0.0267   1406.8902    703.0000     49.1099
            8           6      0.2333      0.0333   1407.6353    703.0000     49.1514
            8           7      0.2333      0.0400   1408.3781    703.0000     49.1929
            8           8      0.2333      0.0467   1409.1183    703.0000     49.2343
            8           9      0.2333      0.0533   1409.8560    703.0000     49.2757
            8          10      0.2333      0.0600   1410.5913    703.0000     49.3169
            8          11      0.2333      0.0667   1411.3241    703.0000     49.3581
            8          12      0.2333      0.0733   1412.0544    703.0000     49.3993
            8          13      0.2333      0.0800   1412.7824    703.0000     49.4403
            8          14      0.2333      0.0867   1413.5080    703.0000     49.4813
            8          15      0.2333      0.0933   1414.2313    703.0000     49.5223
            8          16      0.2333      0.1000   1414.9525    703.0000     49.5632
            8          17      0.2333      0.1067   1415.6716    703.0000     49.6040
            8          18      0.2333      0.1133   1416.3886    703.0000     49.6447
            8          19      0.2333      0.1200   1417.1037    703.0000     49.6855
            8          20      0.2333      0.1267   1417.8169    703.0000     49.7261
            8          21      0.2333      0.1333   1418.5284    703.0000     49.7668
            8          22      0.2333      0.1400   1419.2383    703.0000     49.8074
            8          23      0.2333      0.1467   1419.9466    703.0000     49.8480
            8          24      0.2333      0.1533   1420.6535    703.0000     49.8885
            8          25      0.2333      0.1600   1421.3590    703.0000     49.9291
            8          26      0.2333      0.1667   1422.0632    703.0000     49.9696
            8          27      0.2333      0.1733   1422.7662    703.0000     50.0101
            8          28      0.2333      0.1800   1423.4680    703.0000     50.0507
            8          29      0.2333      0.1867   1424.1688    703.0000     50.0912
            8          30      0.2333      0.1933   1424.8686    703.0000     50.1317
            8          31      0.2333      0.2000   1425.5674    703.0000     50.1722
            9           1      0.2667      0.0000   1404.2201    703.0000     48.9615
            9           2      0.2667      0.0067   1404.9976    703.0000     49.0046
            9           3      0.2667      0.0133   1405.7717    703.0000     49.0476
            9           4      0.2667      0.0200   1406.5421    703.0000     49.0905
            9           5      0.2667      0.0267   1407.3088    703.0000     49.1332
            9           6      0.2667      0.0333   1408.0716    703.0000     49.1758
            9           7      0.2667      0.0400   1408.8305    703.0000     49.2182
            9           8      0.2667      0.0467   1409.5853    703.0000     49.2605
            9           9      0.2667      0.0533   1410.3360    703.0000     49.3026
            9          10      0.2667      0.0600   1411.0826    703.0000     49.3446
            9          11      0.2667      0.0667   1411.8250    703.0000     49.3864
            9          12      0.2667      0.0733   1412.5631    703.0000     49.4280
            9          13      0.2667      0.0800   1413.2970    703.0000     49.4694
            9          14      0.2667      0.0867   1414.0268    703.0000     49.5107
            9          15      0.2667      0.0933   1414.7524    703.0000     49.5518
            9          16      0.2667      0.1000   1415.4738    703.0000     49.5927
            9          17      0.2667      0.1067   1416.1912    703.0000     49.6335
            9          18      0.2667      0.1133   1416.9046    703.0000     49.6741
            9          19      0.2667      0.1200   1417.6140    703.0000     49.7146
            9          20      0.2667      0.1267   1418.3197    703.0000     49.7548
            9          21      0.2667      0.1333   1419.0216    703.0000     49.7950
            9          22      0.2667      0.1400   1419.7199    703.0000     49.8350
            9          23      0.2667      0.1467   1420.4147    703.0000     49.8748
            9          24      0.2667      0.1533   1421.1062    703.0000     49.9145
            9          25      0.2667      0.1600   1421.7945    703.0000     49.9541
            9          26      0.2667      0.1667   1422.4796    703.0000     49.9936
            9          27      0.2667      0.1733   1423.1619    703.0000     50.0330
            9          28      0.2667      0.1800   1423.8413    703.0000     50.0722
            9          29      0.2667      0.1867   1424.5181    703.0000     50.1114
            9          30      0.2667      0.1933   1425.1924    703.0000     50.1505
            9          31      0.2667      0.2000   1425.8644    703.0000     50.1894
           10           1      0.3000      0.0000   1404.4758    703.0000     48.9757
           10           2      0.3000      0.0067   1405.2707    703.0000     49.0198
           10           3      0.3000      0.0133   1406.0613    703.0000     49.0637
           10           4      0.3000      0.0200   1406.8473    703.0000     49.1075
           10           5      0.3000      0.0267   1407.6284    703.0000     49.1510
           10           6      0.3000      0.0333   1408.4045    703.0000     49.1944
           10           7      0.3000      0.0400   1409.1755    703.0000     49.2375
           10           8      0.3000      0.0467   1409.9412    703.0000     49.2805
           10           9      0.3000      0.0533   1410.7015    703.0000     49.3231
           10          10      0.3000      0.0600   1411.4564    703.0000     49.3656
           10          11      0.3000      0.0667   1412.2057    703.0000     49.4078
           10          12      0.3000      0.0733   1412.9494    703.0000     49.4498
           10          13      0.3000      0.0800   1413.6875    703.0000     49.4915
           10          14      0.3000      0.0867   1414.4200    703.0000     49.5330
           10          15      0.3000      0.0933   1415.1468    703.0000     49.5742
           10          16      0.3000      0.1000   1415.8680    703.0000     49.6151
           10          17      0.3000      0.1067   1416.5837    703.0000     49.6558
           10          18      0.3000      0.1133   1417.2939    703.0000     49.6963
           10          19      0.3000      0.1200   1417.9987    703.0000     49.7365
           10          20      0.3000      0.1267   1418.6982    703.0000     49.7765
           10          21      0.3000      0.1333   1419.3925    703.0000     49.8162
           10          22      0.3000      0.1400   1420.0818    703.0000     49.8557
           10          23      0.3000      0.1467   1420.7662    703.0000     49.8950
           10          24      0.3000      0.1533   1421.4458    703.0000     49.9341
           10          25      0.3000      0.1600   1422.1209    703.0000     49.9729
           10          26      0.3000      0.1667   1422.7916    703.0000     50.0116
           10          27      0.3000      0.1733   1423.4581    703.0000     50.0501
           10          28      0.3000      0.1800   1424.1206    703.0000     50.0884
           10          29      0.3000      0.1867   1424.7793    703.0000     50.1265
           10          30      0.3000      0.1933   1425.4346    703.0000     50.1645
           10          31      0.3000      0.2000   1426.0865    703.0000     50.2023
           11           1      0.3333      0.0000   1404.6688    703.0000     48.9864
           11           2      0.3333      0.0067   1405.4771    703.0000     49.0313
           11           3      0.3333      0.0133   1406.2801    703.0000     49.0759
           11           4      0.3333      0.0200   1407.0777    703.0000     49.1203
           11           5      0.3333      0.0267   1407.8697    703.0000     49.1645
           11           6      0.3333      0.0333   1408.6557    703.0000     49.2084
           11           7      0.3333      0.0400   1409.4357    703.0000     49.2521
           11           8      0.3333      0.0467   1410.2095    703.0000     49.2955
           11           9      0.3333      0.0533   1410.9770    703.0000     49.3386
           11          10      0.3333      0.0600   1411.7379    703.0000     49.3814
           11          11      0.3333      0.0667   1412.4923    703.0000     49.4240
           11          12      0.3333      0.0733   1413.2400    703.0000     49.4662
           11          13      0.3333      0.0800   1413.9810    703.0000     49.5081
           11          14      0.3333      0.0867   1414.7153    703.0000     49.5497
           11          15      0.3333      0.0933   1415.4429    703.0000     49.5910
           11          16      0.3333      0.1000   1416.1637    703.0000     49.6319
           11          17      0.3333      0.1067   1416.8779    703.0000     49.6726
           11          18      0.3333      0.1133   1417.5855    703.0000     49.7129
           11          19      0.3333      0.1200   1418.2866    703.0000     49.7530
           11          20      0.3333      0.1267   1418.9814    703.0000     49.7927
           11          21      0.3333      0.1333   1419.6698    703.0000     49.8321
           11          22      0.3333      0.1400   1420.3522    703.0000     49.8712
           11          23      0.3333      0.1467   1421.0285    703.0000     49.9101
           11          24      0.3333      0.1533   1421.6992    703.0000     49.9487
           11          25      0.3333      0.1600   1422.3643    703.0000     49.9870
           11          26      0.3333      0.1667   1423.0241    703.0000     50.0250
           11          27      0.3333      0.1733   1423.6787    703.0000     50.0628
           11          28      0.3333      0.1800   1424.3286    703.0000     50.1004
           11          29      0.3333      0.1867   1424.9739    703.0000     50.1378
           11          30      0.3333      0.1933   1425.6149    703.0000     50.1750
           11          31      0.3333      0.2000   1426.2519    703.0000     50.2120
           12           1      0.3667      0.0000   1404.8120    703.0000     48.9943
           12           2      0.3667      0.0067   1405.6300    703.0000     49.0398
           12           3      0.3667      0.0133   1406.4423    703.0000     49.0849
           12           4      0.3667      0.0200   1407.2485    703.0000     49.1298
           12           5      0.3667      0.0267   1408.0484    703.0000     49.1745
           12           6      0.3667      0.0333   1408.8418    703.0000     49.2188
           12           7      0.3667      0.0400   1409.6285    703.0000     49.2629
           12           8      0.3667      0.0467   1410.4082    703.0000     49.3067
           12           9      0.3667      0.0533   1411.1808    703.0000     49.3501
           12          10      0.3667      0.0600   1411.9462    703.0000     49.3932
           12          11      0.3667      0.0667   1412.7042    703.0000     49.4359
           12          12      0.3667      0.0733   1413.4548    703.0000     49.4783
           12          13      0.3667      0.0800   1414.1978    703.0000     49.5204
           12          14      0.3667      0.0867   1414.9334    703.0000     49.5621
           12          15      0.3667      0.0933   1415.6614    703.0000     49.6034
           12          16      0.3667      0.1000   1416.3819    703.0000     49.6444
           12          17      0.3667      0.1067   1417.0949    703.0000     49.6850
           12          18      0.3667      0.1133   1417.8005    703.0000     49.7252
           12          19      0.3667      0.1200   1418.4988    703.0000     49.7651
           12          20      0.3667      0.1267   1419.1899    703.0000     49.8046
           12          21      0.3667      0.1333   1419.8739    703.0000     49.8438
           12          22      0.3667      0.1400   1420.5511    703.0000     49.8827
           12          23      0.3667      0.1467   1421.2215    703.0000     49.9212
           12          24      0.3667      0.1533   1421.8855    703.0000     49.9594
           12          25      0.3667      0.1600   1422.5432    703.0000     49.9973
           12          26      0.3667      0.1667   1423.1949    703.0000     50.0349
           12          27      0.3667      0.1733   1423.8409    703.0000     50.0722
           12          28      0.3667      0.1800   1424.4814    703.0000     50.1093
           12          29      0.3667      0.1867   1425.1167    703.0000     50.1461
           12          30      0.3667      0.1933   1425.7473    703.0000     50.1826
           12          31      0.3667      0.2000   1426.3733    703.0000     50.2190
           13           1      0.4000      0.0000   1404.9146    703.0000     49.0000
           13           2      0.4000      0.0067   1405.7396    703.0000     49.0458
           13           3      0.4000      0.0133   1406.5585    703.0000     49.0914
           13           4      0.4000      0.0200   1407.3708    703.0000     49.1367
           13           5      0.4000      0.0267   1408.1765    703.0000     49.1816
           13           6      0.4000      0.0333   1408.9751    703.0000     49.2263
           13           7      0.4000      0.0400   1409.7665    703.0000     49.2706
           13           8      0.4000      0.0467   1410.5504    703.0000     49.3146
           13           9      0.4000      0.0533   1411.3267    703.0000     49.3583
           13          10      0.4000      0.0600   1412.0952    703.0000     49.4016
           13          11      0.4000      0.0667   1412.8558    703.0000     49.4445
           13          12      0.4000      0.0733   1413.6084    703.0000     49.4870
           13          13      0.4000      0.0800   1414.3529    703.0000     49.5292
           13          14      0.4000      0.0867   1415.0893    703.0000     49.5709
           13          15      0.4000      0.0933   1415.8176    703.0000     49.6123
           13          16      0.4000      0.1000   1416.5378    703.0000     49.6532
           13          17      0.4000      0.1067   1417.2499    703.0000     49.6938
           13          18      0.4000      0.1133   1417.9540    703.0000     49.7340
           13          19      0.4000      0.1200   1418.6502    703.0000     49.7737
           13          20      0.4000      0.1267   1419.3387    703.0000     49.8131
           13          21      0.4000      0.1333   1420.0196    703.0000     49.8522
           13          22      0.4000      0.1400   1420.6930    703.0000     49.8908
           13          23      0.4000      0.1467   1421.3592    703.0000     49.9291
           13          24      0.4000      0.1533   1422.0183    703.0000     49.9670
           13          25      0.4000      0.1600   1422.6708    703.0000     50.0046
           13          26      0.4000      0.1667   1423.3167    703.0000     50.0419
           13          27      0.4000      0.1733   1423.9564    703.0000     50.0789
           13          28      0.4000      0.1800   1424.5902    703.0000     50.1156
           13          29      0.4000      0.1867   1425.2185    703.0000     50.1520
           13          30      0.4000      0.1933   1425.8416    703.0000     50.1881
           13          31      0.4000      0.2000   1426.4598    703.0000     50.2240
           14           1      0.4333      0.0000   1404.9833    703.0000     49.0038
           14           2      0.4333      0.0067   1405.8131    703.0000     49.0499
           14           3      0.4333      0.0133   1406.6364    703.0000     49.0957
           14           4      0.4333      0.0200   1407.4529    703.0000     49.1412
           14           5      0.4333      0.0267   1408.2623    703.0000     49.1864
           14           6      0.4333      0.0333   1409.0645    703.0000     49.2313
           14           7      0.4333      0.0400   1409.8590    703.0000     49.2758
           14           8      0.4333      0.0467   1410.6457    703.0000     49.3200
           14           9      0.4333      0.0533   1411.4245    703.0000     49.3638
           14          10      0.4333      0.0600   1412.1951    703.0000     49.4072
           14          11      0.4333      0.0667   1412.9574    703.0000     49.4502
           14          12      0.4333      0.0733   1413.7113    703.0000     49.4928
           14          13      0.4333      0.0800   1414.4567    703.0000     49.5350
           14          14      0.4333      0.0867   1415.1937    703.0000     49.5768
           14          15      0.4333      0.0933   1415.9222    703.0000     49.6182
           14          16      0.4333      0.1000   1416.6421    703.0000     49.6592
           14          17      0.4333      0.1067   1417.3536    703.0000     49.6997
           14          18      0.4333      0.1133   1418.0567    703.0000     49.7398
           14          19      0.4333      0.1200   1418.7516    703.0000     49.7795
           14          20      0.4333      0.1267   1419.4382    703.0000     49.8188
           14          21      0.4333      0.1333   1420.1169    703.0000     49.8577
           14          22      0.4333      0.1400   1420.7879    703.0000     49.8963
           14          23      0.4333      0.1467   1421.4512    703.0000     49.9344
           14          24      0.4333      0.1533   1422.1071    703.0000     49.9721
           14          25      0.4333      0.1600   1422.7560    703.0000     50.0095
           14          26      0.4333      0.1667   1423.3980    703.0000     50.0466
           14          27      0.4333      0.1733   1424.0336    703.0000     50.0833
           14          28      0.4333      0.1800   1424.6630    703.0000     50.1198
           14          29      0.4333      0.1867   1425.2865    703.0000     50.1559
           14          30      0.4333      0.1933   1425.9046    703.0000     50.1918
           14          31      0.4333      0.2000   1426.5175    703.0000     50.2274
           15           1      0.4667      0.0000   1405.0229    703.0000     49.0060
           15           2      0.4667      0.0067   1405.8553    703.0000     49.0523
           15           3      0.4667      0.0133   1406.6812    703.0000     49.0982
           15           4      0.4667      0.0200   1407.5000    703.0000     49.1439
           15           5      0.4667      0.0267   1408.3117    703.0000     49.1892
           15           6      0.4667      0.0333   1409.1158    703.0000     49.2342
           15           7      0.4667      0.0400   1409.9122    703.0000     49.2788
           15           8      0.4667      0.0467   1410.7005    703.0000     49.3231
           15           9      0.4667      0.0533   1411.4807    703.0000     49.3670
           15          10      0.4667      0.0600   1412.2524    703.0000     49.4104
           15          11      0.4667      0.0667   1413.0157    703.0000     49.4535
           15          12      0.4667      0.0733   1413.7704    703.0000     49.4962
           15          13      0.4667      0.0800   1414.5164    703.0000     49.5384
           15          14      0.4667      0.0867   1415.2537    703.0000     49.5802
           15          15      0.4667      0.0933   1415.9822    703.0000     49.6216
           15          16      0.4667      0.1000   1416.7020    703.0000     49.6626
           15          17      0.4667      0.1067   1417.4132    703.0000     49.7031
           15          18      0.4667      0.1133   1418.1157    703.0000     49.7432
           15          19      0.4667      0.1200   1418.8097    703.0000     49.7829
           15          20      0.4667      0.1267   1419.4954    703.0000     49.8221
           15          21      0.4667      0.1333   1420.1728    703.0000     49.8610
           15          22      0.4667      0.1400   1420.8423    703.0000     49.8994
           15          23      0.4667      0.1467   1421.5040    703.0000     49.9374
           15          24      0.4667      0.1533   1422.1581    703.0000     49.9751
           15          25      0.4667      0.1600   1422.8049    703.0000     50.0124
           15          26      0.4667      0.1667   1423.4447    703.0000     50.0493
           15          27      0.4667      0.1733   1424.0779    703.0000     50.0859
           15          28      0.4667      0.1800   1424.7047    703.0000     50.1222
           15          29      0.4667      0.1867   1425.3255    703.0000     50.1582
           15          30      0.4667      0.1933   1425.9407    703.0000     50.1939
           15          31      0.4667      0.2000   1426.5507    703.0000     50.2293
           16           1      0.5000      0.0000   1405.0358    703.0000     49.0068
           16           2      0.5000      0.0067   1405.8691    703.0000     49.0530
           16           3      0.5000      0.0133   1406.6958    703.0000     49.0990
           16           4      0.5000      0.0200   1407.5155    703.0000     49.1447
           16           5      0.5000      0.0267   1408.3278    703.0000     49.1901
           16           6      0.5000      0.0333   1409.1326    703.0000     49.2351
           16           7      0.5000      0.0400   1409.9295    703.0000     49.2798
           16           8      0.5000      0.0467   1410.7184    703.0000     49.3241
           16           9      0.5000      0.0533   1411.4990    703.0000     49.3680
           16          10      0.5000      0.0600   1412.2712    703.0000     49.4115
           16          11      0.5000      0.0667   1413.0348    703.0000     49.4546
           16          12      0.5000      0.0733   1413.7897    703.0000     49.4973
           16          13      0.5000      0.0800   1414.5359    703.0000     49.5395
           16          14      0.5000      0.0867   1415.2733    703.0000     49.5814
           16          15      0.5000      0.0933   1416.0018    703.0000     49.6227
           16          16      0.5000      0.1000   1416.7216    703.0000     49.6637
           16          17      0.5000      0.1067   1417.4326    703.0000     49.7042
           16          18      0.5000      0.1133   1418.1349    703.0000     49.7443
           16          19      0.5000      0.1200   1418.8287    703.0000     49.7840
           16          20      0.5000      0.1267   1419.5140    703.0000     49.8232
           16          21      0.5000      0.1333   1420.1911    703.0000     49.8620
           16          22      0.5000      0.1400   1420.8601    703.0000     49.9004
           16          23      0.5000      0.1467   1421.5212    703.0000     49.9384
           16          24      0.5000      0.1533   1422.1747    703.0000     49.9760
           16          25      0.5000      0.1600   1422.8209    703.0000     50.0133
           16          26      0.5000      0.1667   1423.4600    703.0000     50.0502
           16          27      0.5000      0.1733   1424.0923    703.0000     50.0867
           16          28      0.5000      0.1800   1424.7183    703.0000     50.1230
           16          29      0.5000      0.1867   1425.3382    703.0000     50.1589
           16          30      0.5000      0.1933   1425.9525    703.0000     50.1946
           16          31      0.5000      0.2000   1426.5615    703.0000     50.2300
           17           1      0.5333      0.0000   1405.0230    703.0000     49.0060
           17           2      0.5333      0.0067   1405.8554    703.0000     49.0523
           17           3      0.5333      0.0133   1406.6812    703.0000     49.0982
           17           4      0.5333      0.0200   1407.5001    703.0000     49.1439
           17           5      0.5333      0.0267   1408.3118    703.0000     49.1892
           17           6      0.5333      0.0333   1409.1159    703.0000     49.2342
           17           7      0.5333      0.0400   1409.9123    703.0000     49.2788
           17           8      0.5333      0.0467   1410.7006    703.0000     49.3231
           17           9      0.5333      0.0533   1411.4808    703.0000     49.3670
           17          10      0.5333      0.0600   1412.2525    703.0000     49.4105
           17          11      0.5333      0.0667   1413.0158    703.0000     49.4535
           17          12      0.5333      0.0733   1413.7705    703.0000     49.4962
           17          13      0.5333      0.0800   1414.5165    703.0000     49.5384
           17          14      0.5333      0.0867   1415.2538    703.0000     49.5802
           17          15      0.5333      0.0933   1415.9823    703.0000     49.6216
           17          16      0.5333      0.1000   1416.7021    703.0000     49.6626
           17          17      0.5333      0.1067   1417.4133    703.0000     49.7031
           17          18      0.5333      0.1133   1418.1158    703.0000     49.7432
           17          19      0.5333      0.1200   1418.8098    703.0000     49.7829
           17          20      0.5333      0.1267   1419.4955    703.0000     49.8221
           17          21      0.5333      0.1333   1420.1730    703.0000     49.8610
           17          22      0.5333      0.1400   1420.8424    703.0000     49.8994
           17          23      0.5333      0.1467   1421.5041    703.0000     49.9374
           17          24      0.5333      0.1533   1422.1582    703.0000     49.9751
           17          25      0.5333      0.1600   1422.8050    703.0000     50.0124
           17          26      0.5333      0.1667   1423.4448    703.0000     50.0493
           17          27      0.5333      0.1733   1424.0780    703.0000     50.0859
           17          28      0.5333      0.1800   1424.7048    703.0000     50.1222
           17          29      0.5333      0.1867   1425.3256    703.0000     50.1582
           17          30      0.5333      0.1933   1425.9408    703.0000     50.1939
           17          31      0.5333      0.2000   1426.5508    703.0000     50.2293
           18           1      0.5667      0.0000   1404.9835    703.0000     49.0039
           18           2      0.5667      0.0067   1405.8132    703.0000     49.0499
           18           3      0.5667      0.0133   1406.6365    703.0000     49.0957
           18           4      0.5667      0.0200   1407.4531    703.0000     49.1413
           18           5      0.5667      0.0267   1408.2625    703.0000     49.1865
           18           6      0.5667      0.0333   1409.0647    703.0000     49.2313
           18           7      0.5667      0.0400   1409.8592    703.0000     49.2759
           18           8      0.5667      0.0467   1410.6459    703.0000     49.3200
           18           9      0.5667      0.0533   1411.4247    703.0000     49.3638
           18          10      0.5667      0.0600   1412.1953    703.0000     49.4072
           18          11      0.5667      0.0667   1412.9576    703.0000     49.4502
           18          12      0.5667      0.0733   1413.7115    703.0000     49.4929
           18          13      0.5667      0.0800   1414.4570    703.0000     49.5351
           18          14      0.5667      0.0867   1415.1940    703.0000     49.5768
           18          15      0.5667      0.0933   1415.9224    703.0000     49.6182
           18          16      0.5667      0.1000   1416.6423    703.0000     49.6592
           18          17      0.5667      0.1067   1417.3538    703.0000     49.6997
           18          18      0.5667      0.1133   1418.0570    703.0000     49.7398
           18          19      0.5667      0.1200   1418.7518    703.0000     49.7796
           18          20      0.5667      0.1267   1419.4385    703.0000     49.8189
           18          21      0.5667      0.1333   1420.1172    703.0000     49.8578
           18          22      0.5667      0.1400   1420.7881    703.0000     49.8963
           18          23      0.5667      0.1467   1421.4514    703.0000     49.9344
           18          24      0.5667      0.1533   1422.1073    703.0000     49.9722
           18          25      0.5667      0.1600   1422.7562    703.0000     50.0096
           18          26      0.5667      0.1667   1423.3982    703.0000     50.0466
           18          27      0.5667      0.1733   1424.0338    703.0000     50.0834
           18          28      0.5667      0.1800   1424.6631    703.0000     50.1198
           18          29      0.5667      0.1867   1425.2867    703.0000     50.1559
           18          30      0.5667      0.1933   1425.9047    703.0000     50.1918
           18          31      0.5667      0.2000   1426.5177    703.0000     50.2274
           19           1      0.6000      0.0000   1404.9148    703.0000     49.0000
           19           2      0.6000      0.0067   1405.7399    703.0000     49.0459
           19           3      0.6000      0.0133   1406.5587    703.0000     49.0914
           19           4      0.6000      0.0200   1407.3712    703.0000     49.1367
           19           5      0.6000      0.0267   1408.1768    703.0000     49.1817
           19           6      0.6000      0.0333   1408.9754    703.0000     49.2263
           19           7      0.6000      0.0400   1409.7668    703.0000     49.2707
           19           8      0.6000      0.0467   1410.5508    703.0000     49.3147
           19           9      0.6000      0.0533   1411.3271    703.0000     49.3583
           19          10      0.6000      0.0600   1412.0956    703.0000     49.4016
           19          11      0.6000      0.0667   1412.8562    703.0000     49.4445
           19          12      0.6000      0.0733   1413.6088    703.0000     49.4870
           19          13      0.6000      0.0800   1414.3533    703.0000     49.5292
           19          14      0.6000      0.0867   1415.0897    703.0000     49.5709
           19          15      0.6000      0.0933   1415.8180    703.0000     49.6123
           19          16      0.6000      0.1000   1416.5382    703.0000     49.6533
           19          17      0.6000      0.1067   1417.2503    703.0000     49.6938
           19          18      0.6000      0.1133   1417.9544    703.0000     49.7340
           19          19      0.6000      0.1200   1418.6506    703.0000     49.7738
           19          20      0.6000      0.1267   1419.3391    703.0000     49.8132
           19          21      0.6000      0.1333   1420.0199    703.0000     49.8522
           19          22      0.6000      0.1400   1420.6933    703.0000     49.8908
           19          23      0.6000      0.1467   1421.3595    703.0000     49.9291
           19          24      0.6000      0.1533   1422.0187    703.0000     49.9671
           19          25      0.6000      0.1600   1422.6711    703.0000     50.0047
           19          26      0.6000      0.1667   1423.3170    703.0000     50.0419
           19          27      0.6000      0.1733   1423.9567    703.0000     50.0789
           19          28      0.6000      0.1800   1424.5905    703.0000     50.1156
           19          29      0.6000      0.1867   1425.2188    703.0000     50.1520
           19          30      0.6000      0.1933   1425.8418    703.0000     50.1881
           19          31      0.6000      0.2000   1426.4600    703.0000     50.2240
           20           1      0.6333      0.0000   1404.8124    703.0000     48.9944
           20           2      0.6333      0.0067   1405.6304    703.0000     49.0398
           20           3      0.6333      0.0133   1406.4427    703.0000     49.0849
           20           4      0.6333      0.0200   1407.2489    703.0000     49.1299
           20           5      0.6333      0.0267   1408.0489    703.0000     49.1745
           20           6      0.6333      0.0333   1408.8423    703.0000     49.2189
           20           7      0.6333      0.0400   1409.6290    703.0000     49.2629
           20           8      0.6333      0.0467   1410.4087    703.0000     49.3067
           20           9      0.6333      0.0533   1411.1813    703.0000     49.3501
           20          10      0.6333      0.0600   1411.9467    703.0000     49.3932
           20          11      0.6333      0.0667   1412.7047    703.0000     49.4360
           20          12      0.6333      0.0733   1413.4553    703.0000     49.4784
           20          13      0.6333      0.0800   1414.1984    703.0000     49.5204
           20          14      0.6333      0.0867   1414.9340    703.0000     49.5621
           20          15      0.6333      0.0933   1415.6620    703.0000     49.6034
           20          16      0.6333      0.1000   1416.3825    703.0000     49.6444
           20          17      0.6333      0.1067   1417.0955    703.0000     49.6850
           20          18      0.6333      0.1133   1417.8011    703.0000     49.7252
           20          19      0.6333      0.1200   1418.4994    703.0000     49.7651
           20          20      0.6333      0.1267   1419.1904    703.0000     49.8047
           20          21      0.6333      0.1333   1419.8745    703.0000     49.8438
           20          22      0.6333      0.1400   1420.5516    703.0000     49.8827
           20          23      0.6333      0.1467   1421.2220    703.0000     49.9212
           20          24      0.6333      0.1533   1421.8860    703.0000     49.9594
           20          25      0.6333      0.1600   1422.5437    703.0000     49.9973
           20          26      0.6333      0.1667   1423.1954    703.0000     50.0349
           20          27      0.6333      0.1733   1423.8413    703.0000     50.0722
           20          28      0.6333      0.1800   1424.4818    703.0000     50.1093
           20          29      0.6333      0.1867   1425.1171    703.0000     50.1461
           20          30      0.6333      0.1933   1425.7476    703.0000     50.1827
           20          31      0.6333      0.2000   1426.3736    703.0000     50.2190
           21           1      0.6667      0.0000   1404.6694    703.0000     48.9864
           21           2      0.6667      0.0067   1405.4776    703.0000     49.0313
           21           3      0.6667      0.0133   1406.2807    703.0000     49.0759
           21           4      0.6667      0.0200   1407.0783    703.0000     49.1204
           21           5      0.6667      0.0267   1407.8703    703.0000     49.1645
           21           6      0.6667      0.0333   1408.6564    703.0000     49.2085
           21           7      0.6667      0.0400   1409.4365    703.0000     49.2521
           21           8      0.6667      0.0467   1410.2103    703.0000     49.2955
           21           9      0.6667      0.0533   1410.9777    703.0000     49.3387
           21          10      0.6667      0.0600   1411.7387    703.0000     49.3815
           21          11      0.6667      0.0667   1412.4931    703.0000     49.4240
           21          12      0.6667      0.0733   1413.2408    703.0000     49.4662
           21          13      0.6667      0.0800   1413.9818    703.0000     49.5081
           21          14      0.6667      0.0867   1414.7161    703.0000     49.5497
           21          15      0.6667      0.0933   1415.4437    703.0000     49.5910
           21          16      0.6667      0.1000   1416.1645    703.0000     49.6320
           21          17      0.6667      0.1067   1416.8787    703.0000     49.6726
           21          18      0.6667      0.1133   1417.5863    703.0000     49.7130
           21          19      0.6667      0.1200   1418.2874    703.0000     49.7530
           21          20      0.6667      0.1267   1418.9821    703.0000     49.7927
           21          21      0.6667      0.1333   1419.6706    703.0000     49.8322
           21          22      0.6667      0.1400   1420.3529    703.0000     49.8713
           21          23      0.6667      0.1467   1421.0293    703.0000     49.9101
           21          24      0.6667      0.1533   1421.6999    703.0000     49.9487
           21          25      0.6667      0.1600   1422.3649    703.0000     49.9870
           21          26      0.6667      0.1667   1423.0247    703.0000     50.0251
           21          27      0.6667      0.1733   1423.6793    703.0000     50.0629
           21          28      0.6667      0.1800   1424.3292    703.0000     50.1004
           21          29      0.6667      0.1867   1424.9744    703.0000     50.1378
           21          30      0.6667      0.1933   1425.6154    703.0000     50.1750
           21          31      0.6667      0.2000   1426.2523    703.0000     50.2120
           22           1      0.7000      0.0000   1404.4765    703.0000     48.9757
           22           2      0.7000      0.0067   1405.2715    703.0000     49.0198
           22           3      0.7000      0.0133   1406.0621    703.0000     49.0638
           22           4      0.7000      0.0200   1406.8481    703.0000     49.1075
           22           5      0.7000      0.0267   1407.6293    703.0000     49.1511
           22           6      0.7000      0.0333   1408.4055    703.0000     49.1944
           22           7      0.7000      0.0400   1409.1765    703.0000     49.2376
           22           8      0.7000      0.0467   1409.9422    703.0000     49.2805
           22           9      0.7000      0.0533   1410.7026    703.0000     49.3232
           22          10      0.7000      0.0600   1411.4575    703.0000     49.3657
           22          11      0.7000      0.0667   1412.2068    703.0000     49.4079
           22          12      0.7000      0.0733   1412.9505    703.0000     49.4498
           22          13      0.7000      0.0800   1413.6886    703.0000     49.4916
           22          14      0.7000      0.0867   1414.4211    703.0000     49.5330
           22          15      0.7000      0.0933   1415.1479    703.0000     49.5742
           22          16      0.7000      0.1000   1415.8691    703.0000     49.6152
           22          17      0.7000      0.1067   1416.5848    703.0000     49.6559
           22          18      0.7000      0.1133   1417.2950    703.0000     49.6964
           22          19      0.7000      0.1200   1417.9998    703.0000     49.7366
           22          20      0.7000      0.1267   1418.6993    703.0000     49.7765
           22          21      0.7000      0.1333   1419.3936    703.0000     49.8163
           22          22      0.7000      0.1400   1420.0828    703.0000     49.8558
           22          23      0.7000      0.1467   1420.7671    703.0000     49.8951
           22          24      0.7000      0.1533   1421.4467    703.0000     49.9341
           22          25      0.7000      0.1600   1422.1218    703.0000     49.9730
           22          26      0.7000      0.1667   1422.7924    703.0000     50.0117
           22          27      0.7000      0.1733   1423.4589    703.0000     50.0501
           22          28      0.7000      0.1800   1424.1213    703.0000     50.0884
           22          29      0.7000      0.1867   1424.7801    703.0000     50.1266
           22          30      0.7000      0.1933   1425.4352    703.0000     50.1645
           22          31      0.7000      0.2000   1426.0871    703.0000     50.2024
           23           1      0.7333      0.0000   1404.2211    703.0000     48.9616
           23           2      0.7333      0.0067   1404.9987    703.0000     49.0047
           23           3      0.7333      0.0133   1405.7728    703.0000     49.0477
           23           4      0.7333      0.0200   1406.5433    703.0000     49.0905
           23           5      0.7333      0.0267   1407.3100    703.0000     49.1333
           23           6      0.7333      0.0333   1408.0729    703.0000     49.1759
           23           7      0.7333      0.0400   1408.8318    703.0000     49.2183
           23           8      0.7333      0.0467   1409.5867    703.0000     49.2606
           23           9      0.7333      0.0533   1410.3374    703.0000     49.3027
           23          10      0.7333      0.0600   1411.0840    703.0000     49.3446
           23          11      0.7333      0.0667   1411.8264    703.0000     49.3864
           23          12      0.7333      0.0733   1412.5646    703.0000     49.4281
           23          13      0.7333      0.0800   1413.2985    703.0000     49.4695
           23          14      0.7333      0.0867   1414.0283    703.0000     49.5108
           23          15      0.7333      0.0933   1414.7539    703.0000     49.5519
           23          16      0.7333      0.1000   1415.4753    703.0000     49.5928
           23          17      0.7333      0.1067   1416.1927    703.0000     49.6336
           23          18      0.7333      0.1133   1416.9060    703.0000     49.6742
           23          19      0.7333      0.1200   1417.6155    703.0000     49.7146
           23          20      0.7333      0.1267   1418.3211    703.0000     49.7549
           23          21      0.7333      0.1333   1419.0230    703.0000     49.7951
           23          22      0.7333      0.1400   1419.7213    703.0000     49.8351
           23          23      0.7333      0.1467   1420.4160    703.0000     49.8749
           23          24      0.7333      0.1533   1421.1075    703.0000     49.9146
           23          25      0.7333      0.1600   1421.7957    703.0000     49.9542
           23          26      0.7333      0.1667   1422.4808    703.0000     49.9937
           23          27      0.7333      0.1733   1423.1630    703.0000     50.0330
           23          28      0.7333      0.1800   1423.8423    703.0000     50.0723
           23          29      0.7333      0.1867   1424.5191    703.0000     50.1114
           23          30      0.7333      0.1933   1425.1933    703.0000     50.1505
           23          31      0.7333      0.2000   1425.8653    703.0000     50.1895
           24           1      0.7667      0.0000   1403.8871    703.0000     48.9431
           24           2      0.7667      0.0067   1404.6417    703.0000     48.9849
           24           3      0.7667      0.0133   1405.3941    703.0000     49.0266
           24           4      0.7667      0.0200   1406.1441    703.0000     49.0683
           24           5      0.7667      0.0267   1406.8918    703.0000     49.1100
           24           6      0.7667      0.0333   1407.6371    703.0000     49.1515
           24           7      0.7667      0.0400   1408.3798    703.0000     49.1930
           24           8      0.7667      0.0467   1409.1201    703.0000     49.2344
           24           9      0.7667      0.0533   1409.8579    703.0000     49.2758
           24          10      0.7667      0.0600   1410.5932    703.0000     49.3171
           24          11      0.7667      0.0667   1411.3260    703.0000     49.3583
           24          12      0.7667      0.0733   1412.0564    703.0000     49.3994
           24          13      0.7667      0.0800   1412.7843    703.0000     49.4405
           24          14      0.7667      0.0867   1413.5100    703.0000     49.4815
           24          15      0.7667      0.0933   1414.2333    703.0000     49.5224
           24          16      0.7667      0.1000   1414.9545    703.0000     49.5633
           24          17      0.7667      0.1067   1415.6735    703.0000     49.6041
           24          18      0.7667      0.1133   1416.3905    703.0000     49.6448
           24          19      0.7667      0.1200   1417.1056    703.0000     49.6856
           24          20      0.7667      0.1267   1417.8188    703.0000     49.7262
           24          21      0.7667      0.1333   1418.5303    703.0000     49.7669
           24          22      0.7667      0.1400   1419.2401    703.0000     49.8075
           24          23      0.7667      0.1467   1419.9484    703.0000     49.8481
           24          24      0.7667      0.1533   1420.6552    703.0000     49.8886
           24          25      0.7667      0.1600   1421.3606    703.0000     49.9292
           24          26      0.7667      0.1667   1422.0647    703.0000     49.9697
           24          27      0.7667      0.1733   1422.7676    703.0000     50.0102
           24          28      0.7667      0.1800   1423.4694    703.0000     50.0507
           24          29      0.7667      0.1867   1424.1701    703.0000     50.0912
           24          30      0.7667      0.1933   1424.8698    703.0000     50.1318
           24          31      0.7667      0.2000   1425.5685    703.0000     50.1723
           25           1      0.8000      0.0000   1403.4538    703.0000     48.9191
           25           2      0.8000      0.0067   1404.1786    703.0000     48.9592
           25           3      0.8000      0.0133   1404.9027    703.0000     48.9994
           25           4      0.8000      0.0200   1405.6260    703.0000     49.0395
           25           5      0.8000      0.0267   1406.3486    703.0000     49.0797
           25           6      0.8000      0.0333   1407.0704    703.0000     49.1199
           25           7      0.8000      0.0400   1407.7917    703.0000     49.1601
           25           8      0.8000      0.0467   1408.5123    703.0000     49.2004
           25           9      0.8000      0.0533   1409.2325    703.0000     49.2407
           25          10      0.8000      0.0600   1409.9522    703.0000     49.2811
           25          11      0.8000      0.0667   1410.6716    703.0000     49.3215
           25          12      0.8000      0.0733   1411.3908    703.0000     49.3619
           25          13      0.8000      0.0800   1412.1100    703.0000     49.4024
           25          14      0.8000      0.0867   1412.8292    703.0000     49.4430
           25          15      0.8000      0.0933   1413.5485    703.0000     49.4836
           25          16      0.8000      0.1000   1414.2682    703.0000     49.5244
           25          17      0.8000      0.1067   1414.9883    703.0000     49.5652
           25          18      0.8000      0.1133   1415.7090    703.0000     49.6061
           25          19      0.8000      0.1200   1416.4304    703.0000     49.6471
           25          20      0.8000      0.1267   1417.1526    703.0000     49.6882
           25          21      0.8000      0.1333   1417.8757    703.0000     49.7295
           25          22      0.8000      0.1400   1418.5999    703.0000     49.7709
           25          23      0.8000      0.1467   1419.3251    703.0000     49.8124
           25          24      0.8000      0.1533   1420.0516    703.0000     49.8540
           25          25      0.8000      0.1600   1420.7792    703.0000     49.8958
           25          26      0.8000      0.1667   1421.5081    703.0000     49.9377
           25          27      0.8000      0.1733   1422.2383    703.0000     49.9797
           25          28      0.8000      0.1800   1422.9696    703.0000     50.0219
           25          29      0.8000      0.1867   1423.7021    703.0000     50.0642
           25          30      0.8000      0.1933   1424.4357    703.0000     50.1066
           25          31      0.8000      0.2000   1425.1703    703.0000     50.1492
           26           1      0.8333      0.0000   1402.8965    703.0000     48.8883
           26           2      0.8333      0.0067   1403.5829    703.0000     48.9263
           26           3      0.8333      0.0133   1404.2702    703.0000     48.9643
           26           4      0.8333      0.0200   1404.9586    703.0000     49.0025
           26           5      0.8333      0.0267   1405.6482    703.0000     49.0408
           26           6      0.8333      0.0333   1406.3391    703.0000     49.0792
           26           7      0.8333      0.0400   1407.0315    703.0000     49.1177
           26           8      0.8333      0.0467   1407.7256    703.0000     49.1565
           26           9      0.8333      0.0533   1408.4215    703.0000     49.1953
           26          10      0.8333      0.0600   1409.1195    703.0000     49.2344
           26          11      0.8333      0.0667   1409.8199    703.0000     49.2736
           26          12      0.8333      0.0733   1410.5227    703.0000     49.3131
           26          13      0.8333      0.0800   1411.2284    703.0000     49.3528
           26          14      0.8333      0.0867   1411.9371    703.0000     49.3927
           26          15      0.8333      0.0933   1412.6490    703.0000     49.4328
           26          16      0.8333      0.1000   1413.3645    703.0000     49.4732
           26          17      0.8333      0.1067   1414.0838    703.0000     49.5139
           26          18      0.8333      0.1133   1414.8071    703.0000     49.5549
           26          19      0.8333      0.1200   1415.5346    703.0000     49.5962
           26          20      0.8333      0.1267   1416.2665    703.0000     49.6378
           26          21      0.8333      0.1333   1417.0030    703.0000     49.6797
           26          22      0.8333      0.1400   1417.7443    703.0000     49.7220
           26          23      0.8333      0.1467   1418.4904    703.0000     49.7646
           26          24      0.8333      0.1533   1419.2414    703.0000     49.8076
           26          25      0.8333      0.1600   1419.9974    703.0000     49.8509
           26          26      0.8333      0.1667   1420.7582    703.0000     49.8946
           26          27      0.8333      0.1733   1421.5239    703.0000     49.9386
           26          28      0.8333      0.1800   1422.2943    703.0000     49.9829
           26          29      0.8333      0.1867   1423.0692    703.0000     50.0276
           26          30      0.8333      0.1933   1423.8483    703.0000     50.0726
           26          31      0.8333      0.2000   1424.6313    703.0000     50.1179
           27           1      0.8667      0.0000   1402.1867    703.0000     48.8492
           27           2      0.8667      0.0067   1402.8241    703.0000     48.8843
           27           3      0.8667      0.0133   1403.4641    703.0000     48.9197
           27           4      0.8667      0.0200   1404.1072    703.0000     48.9553
           27           5      0.8667      0.0267   1404.7535    703.0000     48.9911
           27           6      0.8667      0.0333   1405.4033    703.0000     49.0272
           27           7      0.8667      0.0400   1406.0569    703.0000     49.0635
           27           8      0.8667      0.0467   1406.7147    703.0000     49.1001
           27           9      0.8667      0.0533   1407.3771    703.0000     49.1370
           27          10      0.8667      0.0600   1408.0443    703.0000     49.1743
           27          11      0.8667      0.0667   1408.7169    703.0000     49.2119
           27          12      0.8667      0.0733   1409.3951    703.0000     49.2498
           27          13      0.8667      0.0800   1410.0796    703.0000     49.2882
           27          14      0.8667      0.0867   1410.7707    703.0000     49.3270
           27          15      0.8667      0.0933   1411.4689    703.0000     49.3663
           27          16      0.8667      0.1000   1412.1746    703.0000     49.4061
           27          17      0.8667      0.1067   1412.8883    703.0000     49.4463
           27          18      0.8667      0.1133   1413.6105    703.0000     49.4871
           27          19      0.8667      0.1200   1414.3416    703.0000     49.5285
           27          20      0.8667      0.1267   1415.0819    703.0000     49.5705
           27          21      0.8667      0.1333   1415.8319    703.0000     49.6131
           27          22      0.8667      0.1400   1416.5918    703.0000     49.6563
           27          23      0.8667      0.1467   1417.3619    703.0000     49.7002
           27          24      0.8667      0.1533   1418.1424    703.0000     49.7447
           27          25      0.8667      0.1600   1418.9333    703.0000     49.7899
           27          26      0.8667      0.1667   1419.7347    703.0000     49.8358
           27          27      0.8667      0.1733   1420.5464    703.0000     49.8824
           27          28      0.8667      0.1800   1421.3683    703.0000     49.9296
           27          29      0.8667      0.1867   1422.1998    703.0000     49.9775
           27          30      0.8667      0.1933   1423.0406    703.0000     50.0260
           27          31      0.8667      0.2000   1423.8900    703.0000     50.0750
           28           1      0.9000      0.0000   1401.2952    703.0000     48.8001
           28           2      0.9000      0.0067   1401.8706    703.0000     48.8318
           28           3      0.9000      0.0133   1402.4505    703.0000     48.8637
           28           4      0.9000      0.0200   1403.0351    703.0000     48.8960
           28           5      0.9000      0.0267   1403.6249    703.0000     48.9286
           28           6      0.9000      0.0333   1404.2203    703.0000     48.9616
           28           7      0.9000      0.0400   1404.8218    703.0000     48.9949
           28           8      0.9000      0.0467   1405.4299    703.0000     49.0286
           28           9      0.9000      0.0533   1406.0451    703.0000     49.0628
           28          10      0.9000      0.0600   1406.6682    703.0000     49.0975
           28          11      0.9000      0.0667   1407.2996    703.0000     49.1327
           28          12      0.9000      0.0733   1407.9402    703.0000     49.1684
           28          13      0.9000      0.0800   1408.5907    703.0000     49.2048
           28          14      0.9000      0.0867   1409.2517    703.0000     49.2418
           28          15      0.9000      0.0933   1409.9242    703.0000     49.2795
           28          16      0.9000      0.1000   1410.6089    703.0000     49.3179
           28          17      0.9000      0.1067   1411.3067    703.0000     49.3572
           28          18      0.9000      0.1133   1412.0185    703.0000     49.3973
           28          19      0.9000      0.1200   1412.7451    703.0000     49.4382
           28          20      0.9000      0.1267   1413.4873    703.0000     49.4802
           28          21      0.9000      0.1333   1414.2461    703.0000     49.5231
           28          22      0.9000      0.1400   1415.0220    703.0000     49.5671
           28          23      0.9000      0.1467   1415.8159    703.0000     49.6122
           28          24      0.9000      0.1533   1416.6283    703.0000     49.6584
           28          25      0.9000      0.1600   1417.4597    703.0000     49.7058
           28          26      0.9000      0.1667   1418.3102    703.0000     49.7543
           28          27      0.9000      0.1733   1419.1801    703.0000     49.8041
           28          28      0.9000      0.1800   1420.0690    703.0000     49.8550
           28          29      0.9000      0.1867   1420.9766    703.0000     49.9071
           28          30      0.9000      0.1933   1421.9021    703.0000     49.9603
           28          31      0.9000      0.2000   1422.8443    703.0000     50.0146
           29           1      0.9333      0.0000   1400.1972    703.0000     48.7398
           29           2      0.9333      0.0067   1400.6959    703.0000     48.7671
           29           3      0.9333      0.0133   1401.2002    703.0000     48.7949
           29           4      0.9333      0.0200   1401.7106    703.0000     48.8230
           29           5      0.9333      0.0267   1402.2275    703.0000     48.8514
           29           6      0.9333      0.0333   1402.7515    703.0000     48.8803
           29           7      0.9333      0.0400   1403.2832    703.0000     48.9097
           29           8      0.9333      0.0467   1403.8234    703.0000     48.9396
           29           9      0.9333      0.0533   1404.3728    703.0000     48.9700
           29          10      0.9333      0.0600   1404.9323    703.0000     49.0010
           29          11      0.9333      0.0667   1405.5028    703.0000     49.0327
           29          12      0.9333      0.0733   1406.0852    703.0000     49.0651
           29          13      0.9333      0.0800   1406.6808    703.0000     49.0982
           29          14      0.9333      0.0867   1407.2906    703.0000     49.1322
           29          15      0.9333      0.0933   1407.9160    703.0000     49.1671
           29          16      0.9333      0.1000   1408.5583    703.0000     49.2030
           29          17      0.9333      0.1067   1409.2190    703.0000     49.2400
           29          18      0.9333      0.1133   1409.8997    703.0000     49.2781
           29          19      0.9333      0.1200   1410.6021    703.0000     49.3176
           29          20      0.9333      0.1267   1411.3277    703.0000     49.3584
           29          21      0.9333      0.1333   1412.0785    703.0000     49.4006
           29          22      0.9333      0.1400   1412.8563    703.0000     49.4445
           29          23      0.9333      0.1467   1413.6627    703.0000     49.4901
           29          24      0.9333      0.1533   1414.4997    703.0000     49.5375
           29          25      0.9333      0.1600   1415.3688    703.0000     49.5868
           29          26      0.9333      0.1667   1416.2715    703.0000     49.6381
           29          27      0.9333      0.1733   1417.2088    703.0000     49.6915
           29          28      0.9333      0.1800   1418.1816    703.0000     49.7470
           29          29      0.9333      0.1867   1419.1899    703.0000     49.8046
           29          30      0.9333      0.1933   1420.2331    703.0000     49.8644
           29          31      0.9333      0.2000   1421.3097    703.0000     49.9262
           30           1      0.9667      0.0000   1398.8813    703.0000     48.6677
           30           2      0.9667      0.0067   1399.2875    703.0000     48.6899
           30           3      0.9667      0.0133   1399.6995    703.0000     48.7125
           30           4      0.9667      0.0200   1400.1177    703.0000     48.7354
           30           5      0.9667      0.0267   1400.5426    703.0000     48.7587
           30           6      0.9667      0.0333   1400.9750    703.0000     48.7825
           30           7      0.9667      0.0400   1401.4155    703.0000     48.8067
           30           8      0.9667      0.0467   1401.8648    703.0000     48.8314
           30           9      0.9667      0.0533   1402.3239    703.0000     48.8568
           30          10      0.9667      0.0600   1402.7937    703.0000     48.8827
           30          11      0.9667      0.0667   1403.2754    703.0000     48.9093
           30          12      0.9667      0.0733   1403.7701    703.0000     48.9366
           30          13      0.9667      0.0800   1404.2793    703.0000     48.9648
           30          14      0.9667      0.0867   1404.8045    703.0000     48.9939
           30          15      0.9667      0.0933   1405.3474    703.0000     49.0241
           30          16      0.9667      0.1000   1405.9099    703.0000     49.0553
           30          17      0.9667      0.1067   1406.4943    703.0000     49.0878
           30          18      0.9667      0.1133   1407.1029    703.0000     49.1217
           30          19      0.9667      0.1200   1407.7385    703.0000     49.1572
           30          20      0.9667      0.1267   1408.4041    703.0000     49.1944
           30          21      0.9667      0.1333   1409.1029    703.0000     49.2335
           30          22      0.9667      0.1400   1409.8389    703.0000     49.2747
           30          23      0.9667      0.1467   1410.6160    703.0000     49.3183
           30          24      0.9667      0.1533   1411.4389    703.0000     49.3646
           30          25      0.9667      0.1600   1412.3125    703.0000     49.4138
           30          26      0.9667      0.1667   1413.2419    703.0000     49.4663
           30          27      0.9667      0.1733   1414.2326    703.0000     49.5223
           30          28      0.9667      0.1800   1415.2898    703.0000     49.5823
           30          29      0.9667      0.1867   1416.4183    703.0000     49.6464
           30          30      0.9667      0.1933   1417.6216    703.0000     49.7150
           30          31      0.9667      0.2000   1418.9006    703.0000     49.7881
           31           1      1.0000      0.0000   1397.3578    703.0000     48.5845
           31           2      1.0000      0.0067   1397.6562    703.0000     48.6007
           31           3      1.0000      0.0133   1397.9593    703.0000     48.6173
           31           4      1.0000      0.0200   1398.2674    703.0000     48.6341
           31           5      1.0000      0.0267   1398.5809    703.0000     48.6512
           31           6      1.0000      0.0333   1398.9003    703.0000     48.6687
           31           7      1.0000      0.0400   1399.2263    703.0000     48.6865
           31           8      1.0000      0.0467   1399.5594    703.0000     48.7048
           31           9      1.0000      0.0533   1399.9004    703.0000     48.7235
           31          10      1.0000      0.0600   1400.2502    703.0000     48.7427
           31          11      1.0000      0.0667   1400.6097    703.0000     48.7624
           31          12      1.0000      0.0733   1400.9800    703.0000     48.7828
           31          13      1.0000      0.0800   1401.3623    703.0000     48.8038
           31          14      1.0000      0.0867   1401.7580    703.0000     48.8256
           31          15      1.0000      0.0933   1402.1687    703.0000     48.8482
           31          16      1.0000      0.1000   1402.5964    703.0000     48.8718
           31          17      1.0000      0.1067   1403.0432    703.0000     48.8964
           31          18      1.0000      0.1133   1403.5115    703.0000     48.9223
           31          19      1.0000      0.1200   1404.0044    703.0000     48.9496
           31          20      1.0000      0.1267   1404.5254    703.0000     48.9785
           31          21      1.0000      0.1333   1405.0788    703.0000     49.0091
           31          22      1.0000      0.1400   1405.6696    703.0000     49.0420
           31          23      1.0000      0.1467   1406.3042    703.0000     49.0772
           31          24      1.0000      0.1533   1406.9904    703.0000     49.1155
           31          25      1.0000      0.1600   1407.7380    703.0000     49.1572
           31          26      1.0000      0.1667   1408.5596    703.0000     49.2031
           31          27      1.0000      0.1733   1409.4714    703.0000     49.2541
           31          28      1.0000      0.1800   1410.4947    703.0000     49.3115
           31          29      1.0000      0.1867   1411.6574    703.0000     49.3769
           31          30      1.0000      0.1933   1412.9974    703.0000     49.4525
           31          31      1.0000      0.2000   1414.5658    703.0000     49.5412
