 ====================================================================================
               Transient state solution for a 2D rectangular plate
                    for applications in steel reheating
                 e.g. Reheating furnaces for rolling processing
 ====================================================================================
 Author: Dickson Alves de Souza

 Based on lectures by professor Roberto Parreiras Tavares

 and book Numerical Heat Transfer and Fluid Flow
 by Suhas V. Patankar (1980)

 Federal University of Minas Gerais (UFMG)
 October 26th, 2017
 ====================================================================================
                              Input parameters:

 Lenght in X direction (meters):           1.0000
 Lenght in Y direction (meters):           0.2000
 Nodes in X direction:                         31
 Nodes in Y direction:                         31
 ====================================================================================

                       STAGE                1/  5
                       START Time:         0.0000
                       END Time:        1140.0000
                       Iterations:             2229

 ====================================================================================
 Temperature of fluid at left face (T left):             1223.1500
 Temperature of fluid at right face (T right):           1223.1500
 Temperature of fluid at bottom face (T bottom):         1223.1500
 Temperature of fluid at top face (T top):               1223.1500
 ------------------------------------------------------------------------------------
 Heat transfer coefficient at left face (H left):          50.0000
 Heat transfer coefficient at right face (H right):        50.0000
 Heat transfer coefficient at bottom face (H bottom):       8.0000
 Heat transfer coefficient at top face (H top):           150.0000
 ====================================================================================


 ====================================================================================

                       STAGE                2/  5
                       START Time:      1140.0000
                       END Time:        3060.0000
                       Iterations:             2229

 ====================================================================================
 Temperature of fluid at left face (T left):             1423.1500
 Temperature of fluid at right face (T right):           1423.1500
 Temperature of fluid at bottom face (T bottom):         1423.1500
 Temperature of fluid at top face (T top):               1423.1500
 ------------------------------------------------------------------------------------
 Heat transfer coefficient at left face (H left):          50.0000
 Heat transfer coefficient at right face (H right):        50.0000
 Heat transfer coefficient at bottom face (H bottom):       8.0000
 Heat transfer coefficient at top face (H top):           150.0000
 ====================================================================================


 ====================================================================================

                       STAGE                3/  5
                       START Time:      3060.0000
                       END Time:        4980.0000
                       Iterations:             2229

 ====================================================================================
 Temperature of fluid at left face (T left):             1513.1500
 Temperature of fluid at right face (T right):           1513.1500
 Temperature of fluid at bottom face (T bottom):         1513.1500
 Temperature of fluid at top face (T top):               1513.1500
 ------------------------------------------------------------------------------------
 Heat transfer coefficient at left face (H left):          50.0000
 Heat transfer coefficient at right face (H right):        50.0000
 Heat transfer coefficient at bottom face (H bottom):       8.0000
 Heat transfer coefficient at top face (H top):           150.0000
 ====================================================================================


 ====================================================================================

                       STAGE                4/  5
                       START Time:      4980.0000
                       END Time:        8400.0000
                       Iterations:             2229

 ====================================================================================
 Temperature of fluid at left face (T left):             1503.1500
 Temperature of fluid at right face (T right):           1503.1500
 Temperature of fluid at bottom face (T bottom):         1503.1500
 Temperature of fluid at top face (T top):               1523.1500
 ------------------------------------------------------------------------------------
 Heat transfer coefficient at left face (H left):          50.0000
 Heat transfer coefficient at right face (H right):        50.0000
 Heat transfer coefficient at bottom face (H bottom):       8.0000
 Heat transfer coefficient at top face (H top):           150.0000
 ====================================================================================


 ====================================================================================

                       STAGE                5/  5
                       START Time:      8400.0000
                       END Time:       18400.0000
                       Iterations:             2229

 ====================================================================================
 Temperature of fluid at left face (T left):             1393.1500
 Temperature of fluid at right face (T right):           1393.1500
 Temperature of fluid at bottom face (T bottom):         1393.1500
 Temperature of fluid at top face (T top):               1433.1500
 ------------------------------------------------------------------------------------
 Heat transfer coefficient at left face (H left):          50.0000
 Heat transfer coefficient at right face (H right):        50.0000
 Heat transfer coefficient at bottom face (H bottom):       8.0000
 Heat transfer coefficient at top face (H top):           150.0000
 ====================================================================================


 SOLUTION of LINEAR SYSTEM: TDMA (tri-diagonal matrix algorithm)
      ADI approach employed in solution.
 Tolerance:       0.0010

 ====================================================================================
                    Calculation Results
 Current time:    17600.000000000000       seconds
 Maximum Temperature :    1425.3051480685708
 Minimum Temperature :    1396.9565307745579
 Average(algebraic, non-weigthed) Temperature :    1411.8398866458415
 ====================================================================================
            I           J        X(m)        Y(m)        T(K)  Cp(J/kg.K) K(W/sq-m.K)
 ====================================================================================
            1           1      0.0000      0.0000   1396.9567    703.0000     48.5626
            1           2      0.0000      0.0067   1397.2277    703.0000     48.5774
            1           3      0.0000      0.0133   1397.5049    703.0000     48.5925
            1           4      0.0000      0.0200   1397.7889    703.0000     48.6080
            1           5      0.0000      0.0267   1398.0802    703.0000     48.6239
            1           6      0.0000      0.0333   1398.3793    703.0000     48.6402
            1           7      0.0000      0.0400   1398.6869    703.0000     48.6570
            1           8      0.0000      0.0467   1399.0038    703.0000     48.6744
            1           9      0.0000      0.0533   1399.3306    703.0000     48.6923
            1          10      0.0000      0.0600   1399.6684    703.0000     48.7108
            1          11      0.0000      0.0667   1400.0182    703.0000     48.7299
            1          12      0.0000      0.0733   1400.3809    703.0000     48.7498
            1          13      0.0000      0.0800   1400.7579    703.0000     48.7706
            1          14      0.0000      0.0867   1401.1507    703.0000     48.7921
            1          15      0.0000      0.0933   1401.5608    703.0000     48.8147
            1          16      0.0000      0.1000   1401.9901    703.0000     48.8384
            1          17      0.0000      0.1067   1402.4408    703.0000     48.8632
            1          18      0.0000      0.1133   1402.9153    703.0000     48.8894
            1          19      0.0000      0.1200   1403.4167    703.0000     48.9171
            1          20      0.0000      0.1267   1403.9483    703.0000     48.9465
            1          21      0.0000      0.1333   1404.5145    703.0000     48.9779
            1          22      0.0000      0.1400   1405.1203    703.0000     49.0114
            1          23      0.0000      0.1467   1405.7718    703.0000     49.0476
            1          24      0.0000      0.1533   1406.4770    703.0000     49.0869
            1          25      0.0000      0.1600   1407.2455    703.0000     49.1297
            1          26      0.0000      0.1667   1408.0898    703.0000     49.1768
            1          27      0.0000      0.1733   1409.0261    703.0000     49.2292
            1          28      0.0000      0.1800   1410.0754    703.0000     49.2880
            1          29      0.0000      0.1867   1411.2657    703.0000     49.3549
            1          30      0.0000      0.1933   1412.6348    703.0000     49.4320
            1          31      0.0000      0.2000   1414.2334    703.0000     49.5224
            2           1      0.0333      0.0000   1398.3299    703.0000     48.6375
            2           2      0.0333      0.0067   1398.6984    703.0000     48.6577
            2           3      0.0333      0.0133   1399.0748    703.0000     48.6783
            2           4      0.0333      0.0200   1399.4600    703.0000     48.6993
            2           5      0.0333      0.0267   1399.8544    703.0000     48.7210
            2           6      0.0333      0.0333   1400.2589    703.0000     48.7431
            2           7      0.0333      0.0400   1400.6742    703.0000     48.7660
            2           8      0.0333      0.0467   1401.1012    703.0000     48.7894
            2           9      0.0333      0.0533   1401.5409    703.0000     48.8136
            2          10      0.0333      0.0600   1401.9943    703.0000     48.8386
            2          11      0.0333      0.0667   1402.4626    703.0000     48.8644
            2          12      0.0333      0.0733   1402.9470    703.0000     48.8911
            2          13      0.0333      0.0800   1403.4490    703.0000     48.9189
            2          14      0.0333      0.0867   1403.9702    703.0000     48.9477
            2          15      0.0333      0.0933   1404.5122    703.0000     48.9777
            2          16      0.0333      0.1000   1405.0771    703.0000     49.0091
            2          17      0.0333      0.1067   1405.6670    703.0000     49.0418
            2          18      0.0333      0.1133   1406.2842    703.0000     49.0761
            2          19      0.0333      0.1200   1406.9314    703.0000     49.1122
            2          20      0.0333      0.1267   1407.6116    703.0000     49.1501
            2          21      0.0333      0.1333   1408.3281    703.0000     49.1901
            2          22      0.0333      0.1400   1409.0846    703.0000     49.2324
            2          23      0.0333      0.1467   1409.8852    703.0000     49.2773
            2          24      0.0333      0.1533   1410.7341    703.0000     49.3250
            2          25      0.0333      0.1600   1411.6364    703.0000     49.3757
            2          26      0.0333      0.1667   1412.5970    703.0000     49.4299
            2          27      0.0333      0.1733   1413.6212    703.0000     49.4877
            2          28      0.0333      0.1800   1414.7142    703.0000     49.5496
            2          29      0.0333      0.1867   1415.8806    703.0000     49.6158
            2          30      0.0333      0.1933   1417.1237    703.0000     49.6866
            2          31      0.0333      0.2000   1418.4442    703.0000     49.7620
            3           1      0.0667      0.0000   1399.5067    703.0000     48.7019
            3           2      0.0667      0.0067   1399.9582    703.0000     48.7266
            3           3      0.0667      0.0133   1400.4181    703.0000     48.7519
            3           4      0.0667      0.0200   1400.8870    703.0000     48.7776
            3           5      0.0667      0.0267   1401.3657    703.0000     48.8040
            3           6      0.0667      0.0333   1401.8548    703.0000     48.8309
            3           7      0.0667      0.0400   1402.3551    703.0000     48.8585
            3           8      0.0667      0.0467   1402.8674    703.0000     48.8867
            3           9      0.0667      0.0533   1403.3926    703.0000     48.9158
            3          10      0.0667      0.0600   1403.9316    703.0000     48.9456
            3          11      0.0667      0.0667   1404.4854    703.0000     48.9762
            3          12      0.0667      0.0733   1405.0550    703.0000     49.0078
            3          13      0.0667      0.0800   1405.6417    703.0000     49.0404
            3          14      0.0667      0.0867   1406.2466    703.0000     49.0740
            3          15      0.0667      0.0933   1406.8710    703.0000     49.1088
            3          16      0.0667      0.1000   1407.5163    703.0000     49.1448
            3          17      0.0667      0.1067   1408.1839    703.0000     49.1821
            3          18      0.0667      0.1133   1408.8754    703.0000     49.2207
            3          19      0.0667      0.1200   1409.5923    703.0000     49.2609
            3          20      0.0667      0.1267   1410.3364    703.0000     49.3026
            3          21      0.0667      0.1333   1411.1094    703.0000     49.3461
            3          22      0.0667      0.1400   1411.9128    703.0000     49.3913
            3          23      0.0667      0.1467   1412.7486    703.0000     49.4384
            3          24      0.0667      0.1533   1413.6182    703.0000     49.4876
            3          25      0.0667      0.1600   1414.5231    703.0000     49.5388
            3          26      0.0667      0.1667   1415.4648    703.0000     49.5922
            3          27      0.0667      0.1733   1416.4441    703.0000     49.6479
            3          28      0.0667      0.1800   1417.4616    703.0000     49.7059
            3          29      0.0667      0.1867   1418.5172    703.0000     49.7661
            3          30      0.0667      0.1933   1419.6100    703.0000     49.8287
            3          31      0.0667      0.2000   1420.7385    703.0000     49.8934
            4           1      0.1000      0.0000   1400.4753    703.0000     48.7550
            4           2      0.1000      0.0067   1400.9947    703.0000     48.7836
            4           3      0.1000      0.0133   1401.5218    703.0000     48.8126
            4           4      0.1000      0.0200   1402.0573    703.0000     48.8421
            4           5      0.1000      0.0267   1402.6018    703.0000     48.8721
            4           6      0.1000      0.0333   1403.1558    703.0000     48.9027
            4           7      0.1000      0.0400   1403.7200    703.0000     48.9339
            4           8      0.1000      0.0467   1404.2951    703.0000     48.9657
            4           9      0.1000      0.0533   1404.8817    703.0000     48.9982
            4          10      0.1000      0.0600   1405.4804    703.0000     49.0314
            4          11      0.1000      0.0667   1406.0922    703.0000     49.0654
            4          12      0.1000      0.0733   1406.7176    703.0000     49.1003
            4          13      0.1000      0.0800   1407.3576    703.0000     49.1359
            4          14      0.1000      0.0867   1408.0128    703.0000     49.1725
            4          15      0.1000      0.0933   1408.6842    703.0000     49.2100
            4          16      0.1000      0.1000   1409.3725    703.0000     49.2486
            4          17      0.1000      0.1067   1410.0785    703.0000     49.2882
            4          18      0.1000      0.1133   1410.8031    703.0000     49.3288
            4          19      0.1000      0.1200   1411.5471    703.0000     49.3707
            4          20      0.1000      0.1267   1412.3112    703.0000     49.4138
            4          21      0.1000      0.1333   1413.0962    703.0000     49.4581
            4          22      0.1000      0.1400   1413.9027    703.0000     49.5037
            4          23      0.1000      0.1467   1414.7313    703.0000     49.5506
            4          24      0.1000      0.1533   1415.5824    703.0000     49.5989
            4          25      0.1000      0.1600   1416.4563    703.0000     49.6486
            4          26      0.1000      0.1667   1417.3530    703.0000     49.6997
            4          27      0.1000      0.1733   1418.2726    703.0000     49.7522
            4          28      0.1000      0.1800   1419.2145    703.0000     49.8060
            4          29      0.1000      0.1867   1420.1781    703.0000     49.8613
            4          30      0.1000      0.1933   1421.1625    703.0000     49.9178
            4          31      0.1000      0.2000   1422.1663    703.0000     49.9756
            5           1      0.1333      0.0000   1401.2481    703.0000     48.7975
            5           2      0.1333      0.0067   1401.8213    703.0000     48.8291
            5           3      0.1333      0.0133   1402.4011    703.0000     48.8610
            5           4      0.1333      0.0200   1402.9880    703.0000     48.8934
            5           5      0.1333      0.0267   1403.5824    703.0000     48.9263
            5           6      0.1333      0.0333   1404.1849    703.0000     48.9596
            5           7      0.1333      0.0400   1404.7959    703.0000     48.9935
            5           8      0.1333      0.0467   1405.4159    703.0000     49.0279
            5           9      0.1333      0.0533   1406.0455    703.0000     49.0628
            5          10      0.1333      0.0600   1406.6850    703.0000     49.0984
            5          11      0.1333      0.0667   1407.3350    703.0000     49.1347
            5          12      0.1333      0.0733   1407.9960    703.0000     49.1716
            5          13      0.1333      0.0800   1408.6686    703.0000     49.2092
            5          14      0.1333      0.0867   1409.3530    703.0000     49.2475
            5          15      0.1333      0.0933   1410.0500    703.0000     49.2866
            5          16      0.1333      0.1000   1410.7598    703.0000     49.3264
            5          17      0.1333      0.1067   1411.4829    703.0000     49.3671
            5          18      0.1333      0.1133   1412.2198    703.0000     49.4086
            5          19      0.1333      0.1200   1412.9708    703.0000     49.4510
            5          20      0.1333      0.1267   1413.7361    703.0000     49.4942
            5          21      0.1333      0.1333   1414.5161    703.0000     49.5384
            5          22      0.1333      0.1400   1415.3110    703.0000     49.5835
            5          23      0.1333      0.1467   1416.1207    703.0000     49.6295
            5          24      0.1333      0.1533   1416.9455    703.0000     49.6764
            5          25      0.1333      0.1600   1417.7850    703.0000     49.7243
            5          26      0.1333      0.1667   1418.6393    703.0000     49.7731
            5          27      0.1333      0.1733   1419.5078    703.0000     49.8228
            5          28      0.1333      0.1800   1420.3902    703.0000     49.8734
            5          29      0.1333      0.1867   1421.2859    703.0000     49.9249
            5          30      0.1333      0.1933   1422.1941    703.0000     49.9772
            5          31      0.1333      0.2000   1423.1138    703.0000     50.0302
            6           1      0.1667      0.0000   1401.8505    703.0000     48.8307
            6           2      0.1667      0.0067   1402.4654    703.0000     48.8646
            6           3      0.1667      0.0133   1403.0856    703.0000     48.8988
            6           4      0.1667      0.0200   1403.7115    703.0000     48.9334
            6           5      0.1667      0.0267   1404.3433    703.0000     48.9684
            6           6      0.1667      0.0333   1404.9815    703.0000     49.0037
            6           7      0.1667      0.0400   1405.6264    703.0000     49.0396
            6           8      0.1667      0.0467   1406.2784    703.0000     49.0758
            6           9      0.1667      0.0533   1406.9379    703.0000     49.1125
            6          10      0.1667      0.0600   1407.6050    703.0000     49.1497
            6          11      0.1667      0.0667   1408.2803    703.0000     49.1874
            6          12      0.1667      0.0733   1408.9640    703.0000     49.2257
            6          13      0.1667      0.0800   1409.6563    703.0000     49.2645
            6          14      0.1667      0.0867   1410.3577    703.0000     49.3038
            6          15      0.1667      0.0933   1411.0682    703.0000     49.3438
            6          16      0.1667      0.1000   1411.7883    703.0000     49.3843
            6          17      0.1667      0.1067   1412.5181    703.0000     49.4254
            6          18      0.1667      0.1133   1413.2577    703.0000     49.4672
            6          19      0.1667      0.1200   1414.0074    703.0000     49.5096
            6          20      0.1667      0.1267   1414.7672    703.0000     49.5526
            6          21      0.1667      0.1333   1415.5372    703.0000     49.5963
            6          22      0.1667      0.1400   1416.3173    703.0000     49.6407
            6          23      0.1667      0.1467   1417.1076    703.0000     49.6857
            6          24      0.1667      0.1533   1417.9078    703.0000     49.7313
            6          25      0.1667      0.1600   1418.7179    703.0000     49.7776
            6          26      0.1667      0.1667   1419.5376    703.0000     49.8245
            6          27      0.1667      0.1733   1420.3666    703.0000     49.8721
            6          28      0.1667      0.1800   1421.2044    703.0000     49.9202
            6          29      0.1667      0.1867   1422.0507    703.0000     49.9689
            6          30      0.1667      0.1933   1422.9049    703.0000     50.0181
            6          31      0.1667      0.2000   1423.7663    703.0000     50.0679
            7           1      0.2000      0.0000   1402.3122    703.0000     48.8561
            7           2      0.2000      0.0067   1402.9590    703.0000     48.8918
            7           3      0.2000      0.0133   1403.6097    703.0000     48.9278
            7           4      0.2000      0.0200   1404.2648    703.0000     48.9640
            7           5      0.2000      0.0267   1404.9244    703.0000     49.0006
            7           6      0.2000      0.0333   1405.5888    703.0000     49.0375
            7           7      0.2000      0.0400   1406.2582    703.0000     49.0747
            7           8      0.2000      0.0467   1406.9330    703.0000     49.1123
            7           9      0.2000      0.0533   1407.6133    703.0000     49.1502
            7          10      0.2000      0.0600   1408.2994    703.0000     49.1885
            7          11      0.2000      0.0667   1408.9915    703.0000     49.2272
            7          12      0.2000      0.0733   1409.6898    703.0000     49.2663
            7          13      0.2000      0.0800   1410.3944    703.0000     49.3059
            7          14      0.2000      0.0867   1411.1056    703.0000     49.3459
            7          15      0.2000      0.0933   1411.8234    703.0000     49.3863
            7          16      0.2000      0.1000   1412.5481    703.0000     49.4271
            7          17      0.2000      0.1067   1413.2797    703.0000     49.4684
            7          18      0.2000      0.1133   1414.0182    703.0000     49.5102
            7          19      0.2000      0.1200   1414.7638    703.0000     49.5524
            7          20      0.2000      0.1267   1415.5164    703.0000     49.5952
            7          21      0.2000      0.1333   1416.2760    703.0000     49.6383
            7          22      0.2000      0.1400   1417.0425    703.0000     49.6820
            7          23      0.2000      0.1467   1417.8160    703.0000     49.7261
            7          24      0.2000      0.1533   1418.5961    703.0000     49.7707
            7          25      0.2000      0.1600   1419.3828    703.0000     49.8157
            7          26      0.2000      0.1667   1420.1759    703.0000     49.8611
            7          27      0.2000      0.1733   1420.9751    703.0000     49.9070
            7          28      0.2000      0.1800   1421.7800    703.0000     49.9533
            7          29      0.2000      0.1867   1422.5904    703.0000     50.0000
            7          30      0.2000      0.1933   1423.4059    703.0000     50.0471
            7          31      0.2000      0.2000   1424.2260    703.0000     50.0945
            8           1      0.2333      0.0000   1402.6616    703.0000     48.8754
            8           2      0.2333      0.0067   1403.3324    703.0000     48.9124
            8           3      0.2333      0.0133   1404.0061    703.0000     48.9497
            8           4      0.2333      0.0200   1404.6829    703.0000     48.9872
            8           5      0.2333      0.0267   1405.3630    703.0000     49.0249
            8           6      0.2333      0.0333   1406.0466    703.0000     49.0629
            8           7      0.2333      0.0400   1406.7338    703.0000     49.1012
            8           8      0.2333      0.0467   1407.4248    703.0000     49.1397
            8           9      0.2333      0.0533   1408.1199    703.0000     49.1785
            8          10      0.2333      0.0600   1408.8191    703.0000     49.2176
            8          11      0.2333      0.0667   1409.5226    703.0000     49.2570
            8          12      0.2333      0.0733   1410.2305    703.0000     49.2967
            8          13      0.2333      0.0800   1410.9429    703.0000     49.3367
            8          14      0.2333      0.0867   1411.6600    703.0000     49.3771
            8          15      0.2333      0.0933   1412.3817    703.0000     49.4177
            8          16      0.2333      0.1000   1413.1082    703.0000     49.4587
            8          17      0.2333      0.1067   1413.8396    703.0000     49.5001
            8          18      0.2333      0.1133   1414.5757    703.0000     49.5418
            8          19      0.2333      0.1200   1415.3167    703.0000     49.5838
            8          20      0.2333      0.1267   1416.0625    703.0000     49.6262
            8          21      0.2333      0.1333   1416.8131    703.0000     49.6689
            8          22      0.2333      0.1400   1417.5684    703.0000     49.7120
            8          23      0.2333      0.1467   1418.3284    703.0000     49.7553
            8          24      0.2333      0.1533   1419.0928    703.0000     49.7991
            8          25      0.2333      0.1600   1419.8616    703.0000     49.8431
            8          26      0.2333      0.1667   1420.6345    703.0000     49.8874
            8          27      0.2333      0.1733   1421.4115    703.0000     49.9321
            8          28      0.2333      0.1800   1422.1923    703.0000     49.9770
            8          29      0.2333      0.1867   1422.9765    703.0000     50.0223
            8          30      0.2333      0.1933   1423.7641    703.0000     50.0678
            8          31      0.2333      0.2000   1424.5546    703.0000     50.1135
            9           1      0.2667      0.0000   1402.9234    703.0000     48.8898
            9           2      0.2667      0.0067   1403.6122    703.0000     48.9279
            9           3      0.2667      0.0133   1404.3030    703.0000     48.9661
            9           4      0.2667      0.0200   1404.9959    703.0000     49.0045
            9           5      0.2667      0.0267   1405.6911    703.0000     49.0431
            9           6      0.2667      0.0333   1406.3887    703.0000     49.0819
            9           7      0.2667      0.0400   1407.0888    703.0000     49.1209
            9           8      0.2667      0.0467   1407.7915    703.0000     49.1601
            9           9      0.2667      0.0533   1408.4970    703.0000     49.1996
            9          10      0.2667      0.0600   1409.2054    703.0000     49.2392
            9          11      0.2667      0.0667   1409.9168    703.0000     49.2791
            9          12      0.2667      0.0733   1410.6311    703.0000     49.3192
            9          13      0.2667      0.0800   1411.3486    703.0000     49.3595
            9          14      0.2667      0.0867   1412.0693    703.0000     49.4001
            9          15      0.2667      0.0933   1412.7932    703.0000     49.4410
            9          16      0.2667      0.1000   1413.5203    703.0000     49.4820
            9          17      0.2667      0.1067   1414.2507    703.0000     49.5234
            9          18      0.2667      0.1133   1414.9843    703.0000     49.5650
            9          19      0.2667      0.1200   1415.7212    703.0000     49.6068
            9          20      0.2667      0.1267   1416.4613    703.0000     49.6489
            9          21      0.2667      0.1333   1417.2046    703.0000     49.6912
            9          22      0.2667      0.1400   1417.9510    703.0000     49.7338
            9          23      0.2667      0.1467   1418.7005    703.0000     49.7766
            9          24      0.2667      0.1533   1419.4529    703.0000     49.8197
            9          25      0.2667      0.1600   1420.2082    703.0000     49.8630
            9          26      0.2667      0.1667   1420.9662    703.0000     49.9065
            9          27      0.2667      0.1733   1421.7268    703.0000     49.9502
            9          28      0.2667      0.1800   1422.4898    703.0000     49.9942
            9          29      0.2667      0.1867   1423.2550    703.0000     50.0383
            9          30      0.2667      0.1933   1424.0223    703.0000     50.0827
            9          31      0.2667      0.2000   1424.7915    703.0000     50.1272
           10           1      0.3000      0.0000   1403.1177    703.0000     48.9006
           10           2      0.3000      0.0067   1403.8199    703.0000     48.9394
           10           3      0.3000      0.0133   1404.5233    703.0000     48.9783
           10           4      0.3000      0.0200   1405.2281    703.0000     49.0174
           10           5      0.3000      0.0267   1405.9343    703.0000     49.0567
           10           6      0.3000      0.0333   1406.6421    703.0000     49.0960
           10           7      0.3000      0.0400   1407.3516    703.0000     49.1356
           10           8      0.3000      0.0467   1408.0627    703.0000     49.1753
           10           9      0.3000      0.0533   1408.7757    703.0000     49.2152
           10          10      0.3000      0.0600   1409.4906    703.0000     49.2552
           10          11      0.3000      0.0667   1410.2074    703.0000     49.2954
           10          12      0.3000      0.0733   1410.9263    703.0000     49.3358
           10          13      0.3000      0.0800   1411.6471    703.0000     49.3763
           10          14      0.3000      0.0867   1412.3701    703.0000     49.4171
           10          15      0.3000      0.0933   1413.0951    703.0000     49.4580
           10          16      0.3000      0.1000   1413.8223    703.0000     49.4991
           10          17      0.3000      0.1067   1414.5516    703.0000     49.5404
           10          18      0.3000      0.1133   1415.2830    703.0000     49.5819
           10          19      0.3000      0.1200   1416.0165    703.0000     49.6236
           10          20      0.3000      0.1267   1416.7521    703.0000     49.6654
           10          21      0.3000      0.1333   1417.4897    703.0000     49.7075
           10          22      0.3000      0.1400   1418.2293    703.0000     49.7497
           10          23      0.3000      0.1467   1418.9709    703.0000     49.7921
           10          24      0.3000      0.1533   1419.7144    703.0000     49.8347
           10          25      0.3000      0.1600   1420.4596    703.0000     49.8774
           10          26      0.3000      0.1667   1421.2065    703.0000     49.9203
           10          27      0.3000      0.1733   1421.9550    703.0000     49.9634
           10          28      0.3000      0.1800   1422.7050    703.0000     50.0066
           10          29      0.3000      0.1867   1423.4564    703.0000     50.0500
           10          30      0.3000      0.1933   1424.2090    703.0000     50.0935
           10          31      0.3000      0.2000   1424.9627    703.0000     50.1371
           11           1      0.3333      0.0000   1403.2604    703.0000     48.9084
           11           2      0.3333      0.0067   1403.9723    703.0000     48.9478
           11           3      0.3333      0.0133   1404.6850    703.0000     48.9873
           11           4      0.3333      0.0200   1405.3984    703.0000     49.0269
           11           5      0.3333      0.0267   1406.1127    703.0000     49.0666
           11           6      0.3333      0.0333   1406.8279    703.0000     49.1064
           11           7      0.3333      0.0400   1407.5441    703.0000     49.1463
           11           8      0.3333      0.0467   1408.2613    703.0000     49.1864
           11           9      0.3333      0.0533   1408.9797    703.0000     49.2266
           11          10      0.3333      0.0600   1409.6991    703.0000     49.2669
           11          11      0.3333      0.0667   1410.4198    703.0000     49.3073
           11          12      0.3333      0.0733   1411.1417    703.0000     49.3479
           11          13      0.3333      0.0800   1411.8649    703.0000     49.3886
           11          14      0.3333      0.0867   1412.5893    703.0000     49.4294
           11          15      0.3333      0.0933   1413.3150    703.0000     49.4704
           11          16      0.3333      0.1000   1414.0420    703.0000     49.5116
           11          17      0.3333      0.1067   1414.7703    703.0000     49.5528
           11          18      0.3333      0.1133   1415.4999    703.0000     49.5942
           11          19      0.3333      0.1200   1416.2308    703.0000     49.6358
           11          20      0.3333      0.1267   1416.9629    703.0000     49.6774
           11          21      0.3333      0.1333   1417.6963    703.0000     49.7193
           11          22      0.3333      0.1400   1418.4308    703.0000     49.7612
           11          23      0.3333      0.1467   1419.1665    703.0000     49.8033
           11          24      0.3333      0.1533   1419.9033    703.0000     49.8455
           11          25      0.3333      0.1600   1420.6412    703.0000     49.8878
           11          26      0.3333      0.1667   1421.3800    703.0000     49.9303
           11          27      0.3333      0.1733   1422.1198    703.0000     49.9729
           11          28      0.3333      0.1800   1422.8603    703.0000     50.0156
           11          29      0.3333      0.1867   1423.6017    703.0000     50.0584
           11          30      0.3333      0.1933   1424.3436    703.0000     50.1013
           11          31      0.3333      0.2000   1425.0862    703.0000     50.1443
           12           1      0.3667      0.0000   1403.3633    703.0000     48.9141
           12           2      0.3667      0.0067   1404.0823    703.0000     48.9539
           12           3      0.3667      0.0133   1404.8016    703.0000     48.9938
           12           4      0.3667      0.0200   1405.5212    703.0000     49.0337
           12           5      0.3667      0.0267   1406.2413    703.0000     49.0737
           12           6      0.3667      0.0333   1406.9618    703.0000     49.1139
           12           7      0.3667      0.0400   1407.6828    703.0000     49.1541
           12           8      0.3667      0.0467   1408.4043    703.0000     49.1944
           12           9      0.3667      0.0533   1409.1265    703.0000     49.2348
           12          10      0.3667      0.0600   1409.8492    703.0000     49.2753
           12          11      0.3667      0.0667   1410.5726    703.0000     49.3159
           12          12      0.3667      0.0733   1411.2966    703.0000     49.3566
           12          13      0.3667      0.0800   1412.0213    703.0000     49.3974
           12          14      0.3667      0.0867   1412.7467    703.0000     49.4383
           12          15      0.3667      0.0933   1413.4728    703.0000     49.4794
           12          16      0.3667      0.1000   1414.1996    703.0000     49.5205
           12          17      0.3667      0.1067   1414.9271    703.0000     49.5617
           12          18      0.3667      0.1133   1415.6553    703.0000     49.6030
           12          19      0.3667      0.1200   1416.3842    703.0000     49.6445
           12          20      0.3667      0.1267   1417.1138    703.0000     49.6860
           12          21      0.3667      0.1333   1417.8440    703.0000     49.7277
           12          22      0.3667      0.1400   1418.5748    703.0000     49.7694
           12          23      0.3667      0.1467   1419.3063    703.0000     49.8113
           12          24      0.3667      0.1533   1420.0383    703.0000     49.8532
           12          25      0.3667      0.1600   1420.7708    703.0000     49.8953
           12          26      0.3667      0.1667   1421.5038    703.0000     49.9374
           12          27      0.3667      0.1733   1422.2373    703.0000     49.9796
           12          28      0.3667      0.1800   1422.9711    703.0000     50.0220
           12          29      0.3667      0.1867   1423.7052    703.0000     50.0644
           12          30      0.3667      0.1933   1424.4396    703.0000     50.1068
           12          31      0.3667      0.2000   1425.1742    703.0000     50.1494
           13           1      0.4000      0.0000   1403.4353    703.0000     48.9181
           13           2      0.4000      0.0067   1404.1592    703.0000     48.9582
           13           3      0.4000      0.0133   1404.8831    703.0000     48.9983
           13           4      0.4000      0.0200   1405.6071    703.0000     49.0385
           13           5      0.4000      0.0267   1406.3312    703.0000     49.0787
           13           6      0.4000      0.0333   1407.0554    703.0000     49.1191
           13           7      0.4000      0.0400   1407.7798    703.0000     49.1595
           13           8      0.4000      0.0467   1408.5043    703.0000     49.2000
           13           9      0.4000      0.0533   1409.2291    703.0000     49.2405
           13          10      0.4000      0.0600   1409.9540    703.0000     49.2812
           13          11      0.4000      0.0667   1410.6792    703.0000     49.3219
           13          12      0.4000      0.0733   1411.4047    703.0000     49.3627
           13          13      0.4000      0.0800   1412.1305    703.0000     49.4036
           13          14      0.4000      0.0867   1412.8565    703.0000     49.4445
           13          15      0.4000      0.0933   1413.5828    703.0000     49.4856
           13          16      0.4000      0.1000   1414.3095    703.0000     49.5267
           13          17      0.4000      0.1067   1415.0364    703.0000     49.5679
           13          18      0.4000      0.1133   1415.7636    703.0000     49.6092
           13          19      0.4000      0.1200   1416.4910    703.0000     49.6506
           13          20      0.4000      0.1267   1417.2188    703.0000     49.6920
           13          21      0.4000      0.1333   1417.9468    703.0000     49.7336
           13          22      0.4000      0.1400   1418.6750    703.0000     49.7752
           13          23      0.4000      0.1467   1419.4035    703.0000     49.8168
           13          24      0.4000      0.1533   1420.1321    703.0000     49.8586
           13          25      0.4000      0.1600   1420.8609    703.0000     49.9005
           13          26      0.4000      0.1667   1421.5898    703.0000     49.9424
           13          27      0.4000      0.1733   1422.3189    703.0000     49.9843
           13          28      0.4000      0.1800   1423.0480    703.0000     50.0264
           13          29      0.4000      0.1867   1423.7771    703.0000     50.0685
           13          30      0.4000      0.1933   1424.5062    703.0000     50.1107
           13          31      0.4000      0.2000   1425.2353    703.0000     50.1529
           14           1      0.4333      0.0000   1403.4826    703.0000     48.9207
           14           2      0.4333      0.0067   1404.2098    703.0000     48.9610
           14           3      0.4333      0.0133   1404.9368    703.0000     49.0013
           14           4      0.4333      0.0200   1405.6636    703.0000     49.0416
           14           5      0.4333      0.0267   1406.3903    703.0000     49.0820
           14           6      0.4333      0.0333   1407.1170    703.0000     49.1225
           14           7      0.4333      0.0400   1407.8435    703.0000     49.1630
           14           8      0.4333      0.0467   1408.5700    703.0000     49.2036
           14           9      0.4333      0.0533   1409.2965    703.0000     49.2443
           14          10      0.4333      0.0600   1410.0229    703.0000     49.2850
           14          11      0.4333      0.0667   1410.7493    703.0000     49.3258
           14          12      0.4333      0.0733   1411.4757    703.0000     49.3667
           14          13      0.4333      0.0800   1412.2021    703.0000     49.4076
           14          14      0.4333      0.0867   1412.9286    703.0000     49.4486
           14          15      0.4333      0.0933   1413.6550    703.0000     49.4897
           14          16      0.4333      0.1000   1414.3815    703.0000     49.5308
           14          17      0.4333      0.1067   1415.1080    703.0000     49.5720
           14          18      0.4333      0.1133   1415.8345    703.0000     49.6132
           14          19      0.4333      0.1200   1416.5610    703.0000     49.6546
           14          20      0.4333      0.1267   1417.2876    703.0000     49.6959
           14          21      0.4333      0.1333   1418.0141    703.0000     49.7374
           14          22      0.4333      0.1400   1418.7406    703.0000     49.7789
           14          23      0.4333      0.1467   1419.4671    703.0000     49.8205
           14          24      0.4333      0.1533   1420.1935    703.0000     49.8621
           14          25      0.4333      0.1600   1420.9199    703.0000     49.9038
           14          26      0.4333      0.1667   1421.6461    703.0000     49.9456
           14          27      0.4333      0.1733   1422.3723    703.0000     49.9874
           14          28      0.4333      0.1800   1423.0983    703.0000     50.0293
           14          29      0.4333      0.1867   1423.8242    703.0000     50.0712
           14          30      0.4333      0.1933   1424.5498    703.0000     50.1132
           14          31      0.4333      0.2000   1425.2753    703.0000     50.1553
           15           1      0.4667      0.0000   1403.5095    703.0000     48.9222
           15           2      0.4667      0.0067   1404.2385    703.0000     48.9626
           15           3      0.4667      0.0133   1404.9672    703.0000     49.0030
           15           4      0.4667      0.0200   1405.6956    703.0000     49.0434
           15           5      0.4667      0.0267   1406.4238    703.0000     49.0839
           15           6      0.4667      0.0333   1407.1518    703.0000     49.1245
           15           7      0.4667      0.0400   1407.8796    703.0000     49.1651
           15           8      0.4667      0.0467   1408.6072    703.0000     49.2057
           15           9      0.4667      0.0533   1409.3346    703.0000     49.2464
           15          10      0.4667      0.0600   1410.0619    703.0000     49.2872
           15          11      0.4667      0.0667   1410.7890    703.0000     49.3281
           15          12      0.4667      0.0733   1411.5159    703.0000     49.3689
           15          13      0.4667      0.0800   1412.2427    703.0000     49.4099
           15          14      0.4667      0.0867   1412.9694    703.0000     49.4509
           15          15      0.4667      0.0933   1413.6959    703.0000     49.4920
           15          16      0.4667      0.1000   1414.4223    703.0000     49.5331
           15          17      0.4667      0.1067   1415.1485    703.0000     49.5743
           15          18      0.4667      0.1133   1415.8747    703.0000     49.6155
           15          19      0.4667      0.1200   1416.6006    703.0000     49.6568
           15          20      0.4667      0.1267   1417.3265    703.0000     49.6982
           15          21      0.4667      0.1333   1418.0522    703.0000     49.7396
           15          22      0.4667      0.1400   1418.7777    703.0000     49.7810
           15          23      0.4667      0.1467   1419.5031    703.0000     49.8226
           15          24      0.4667      0.1533   1420.2282    703.0000     49.8641
           15          25      0.4667      0.1600   1420.9532    703.0000     49.9058
           15          26      0.4667      0.1667   1421.6780    703.0000     49.9474
           15          27      0.4667      0.1733   1422.4025    703.0000     49.9892
           15          28      0.4667      0.1800   1423.1268    703.0000     50.0309
           15          29      0.4667      0.1867   1423.8508    703.0000     50.0728
           15          30      0.4667      0.1933   1424.5745    703.0000     50.1146
           15          31      0.4667      0.2000   1425.2979    703.0000     50.1566
           16           1      0.5000      0.0000   1403.5181    703.0000     48.9227
           16           2      0.5000      0.0067   1404.2477    703.0000     48.9631
           16           3      0.5000      0.0133   1404.9770    703.0000     49.0035
           16           4      0.5000      0.0200   1405.7060    703.0000     49.0440
           16           5      0.5000      0.0267   1406.4347    703.0000     49.0845
           16           6      0.5000      0.0333   1407.1631    703.0000     49.1251
           16           7      0.5000      0.0400   1407.8913    703.0000     49.1657
           16           8      0.5000      0.0467   1408.6192    703.0000     49.2064
           16           9      0.5000      0.0533   1409.3470    703.0000     49.2471
           16          10      0.5000      0.0600   1410.0745    703.0000     49.2879
           16          11      0.5000      0.0667   1410.8018    703.0000     49.3288
           16          12      0.5000      0.0733   1411.5289    703.0000     49.3697
           16          13      0.5000      0.0800   1412.2558    703.0000     49.4106
           16          14      0.5000      0.0867   1412.9825    703.0000     49.4516
           16          15      0.5000      0.0933   1413.7091    703.0000     49.4927
           16          16      0.5000      0.1000   1414.4354    703.0000     49.5338
           16          17      0.5000      0.1067   1415.1616    703.0000     49.5750
           16          18      0.5000      0.1133   1415.8876    703.0000     49.6162
           16          19      0.5000      0.1200   1416.6134    703.0000     49.6575
           16          20      0.5000      0.1267   1417.3390    703.0000     49.6989
           16          21      0.5000      0.1333   1418.0645    703.0000     49.7403
           16          22      0.5000      0.1400   1418.7897    703.0000     49.7817
           16          23      0.5000      0.1467   1419.5147    703.0000     49.8232
           16          24      0.5000      0.1533   1420.2394    703.0000     49.8648
           16          25      0.5000      0.1600   1420.9639    703.0000     49.9064
           16          26      0.5000      0.1667   1421.6882    703.0000     49.9480
           16          27      0.5000      0.1733   1422.4122    703.0000     49.9897
           16          28      0.5000      0.1800   1423.1359    703.0000     50.0315
           16          29      0.5000      0.1867   1423.8593    703.0000     50.0733
           16          30      0.5000      0.1933   1424.5824    703.0000     50.1151
           16          31      0.5000      0.2000   1425.3051    703.0000     50.1570
           17           1      0.5333      0.0000   1403.5094    703.0000     48.9222
           17           2      0.5333      0.0067   1404.2384    703.0000     48.9626
           17           3      0.5333      0.0133   1404.9671    703.0000     49.0029
           17           4      0.5333      0.0200   1405.6956    703.0000     49.0434
           17           5      0.5333      0.0267   1406.4238    703.0000     49.0839
           17           6      0.5333      0.0333   1407.1518    703.0000     49.1244
           17           7      0.5333      0.0400   1407.8795    703.0000     49.1651
           17           8      0.5333      0.0467   1408.6071    703.0000     49.2057
           17           9      0.5333      0.0533   1409.3345    703.0000     49.2464
           17          10      0.5333      0.0600   1410.0618    703.0000     49.2872
           17          11      0.5333      0.0667   1410.7889    703.0000     49.3280
           17          12      0.5333      0.0733   1411.5158    703.0000     49.3689
           17          13      0.5333      0.0800   1412.2426    703.0000     49.4099
           17          14      0.5333      0.0867   1412.9693    703.0000     49.4509
           17          15      0.5333      0.0933   1413.6958    703.0000     49.4920
           17          16      0.5333      0.1000   1414.4222    703.0000     49.5331
           17          17      0.5333      0.1067   1415.1484    703.0000     49.5743
           17          18      0.5333      0.1133   1415.8746    703.0000     49.6155
           17          19      0.5333      0.1200   1416.6006    703.0000     49.6568
           17          20      0.5333      0.1267   1417.3264    703.0000     49.6982
           17          21      0.5333      0.1333   1418.0521    703.0000     49.7396
           17          22      0.5333      0.1400   1418.7776    703.0000     49.7810
           17          23      0.5333      0.1467   1419.5030    703.0000     49.8225
           17          24      0.5333      0.1533   1420.2282    703.0000     49.8641
           17          25      0.5333      0.1600   1420.9531    703.0000     49.9058
           17          26      0.5333      0.1667   1421.6779    703.0000     49.9474
           17          27      0.5333      0.1733   1422.4024    703.0000     49.9892
           17          28      0.5333      0.1800   1423.1267    703.0000     50.0309
           17          29      0.5333      0.1867   1423.8507    703.0000     50.0728
           17          30      0.5333      0.1933   1424.5744    703.0000     50.1146
           17          31      0.5333      0.2000   1425.2978    703.0000     50.1566
           18           1      0.5667      0.0000   1403.4825    703.0000     48.9207
           18           2      0.5667      0.0067   1404.2097    703.0000     48.9610
           18           3      0.5667      0.0133   1404.9367    703.0000     49.0013
           18           4      0.5667      0.0200   1405.6635    703.0000     49.0416
           18           5      0.5667      0.0267   1406.3902    703.0000     49.0820
           18           6      0.5667      0.0333   1407.1168    703.0000     49.1225
           18           7      0.5667      0.0400   1407.8434    703.0000     49.1630
           18           8      0.5667      0.0467   1408.5698    703.0000     49.2036
           18           9      0.5667      0.0533   1409.2963    703.0000     49.2443
           18          10      0.5667      0.0600   1410.0227    703.0000     49.2850
           18          11      0.5667      0.0667   1410.7491    703.0000     49.3258
           18          12      0.5667      0.0733   1411.4755    703.0000     49.3667
           18          13      0.5667      0.0800   1412.2020    703.0000     49.4076
           18          14      0.5667      0.0867   1412.9284    703.0000     49.4486
           18          15      0.5667      0.0933   1413.6549    703.0000     49.4896
           18          16      0.5667      0.1000   1414.3813    703.0000     49.5308
           18          17      0.5667      0.1067   1415.1078    703.0000     49.5720
           18          18      0.5667      0.1133   1415.8344    703.0000     49.6132
           18          19      0.5667      0.1200   1416.5609    703.0000     49.6545
           18          20      0.5667      0.1267   1417.2874    703.0000     49.6959
           18          21      0.5667      0.1333   1418.0139    703.0000     49.7374
           18          22      0.5667      0.1400   1418.7405    703.0000     49.7789
           18          23      0.5667      0.1467   1419.4669    703.0000     49.8205
           18          24      0.5667      0.1533   1420.1934    703.0000     49.8621
           18          25      0.5667      0.1600   1420.9197    703.0000     49.9038
           18          26      0.5667      0.1667   1421.6460    703.0000     49.9456
           18          27      0.5667      0.1733   1422.3722    703.0000     49.9874
           18          28      0.5667      0.1800   1423.0982    703.0000     50.0293
           18          29      0.5667      0.1867   1423.8241    703.0000     50.0712
           18          30      0.5667      0.1933   1424.5497    703.0000     50.1132
           18          31      0.5667      0.2000   1425.2752    703.0000     50.1553
           19           1      0.6000      0.0000   1403.4351    703.0000     48.9181
           19           2      0.6000      0.0067   1404.1590    703.0000     48.9582
           19           3      0.6000      0.0133   1404.8830    703.0000     48.9983
           19           4      0.6000      0.0200   1405.6069    703.0000     49.0385
           19           5      0.6000      0.0267   1406.3310    703.0000     49.0787
           19           6      0.6000      0.0333   1407.0552    703.0000     49.1191
           19           7      0.6000      0.0400   1407.7796    703.0000     49.1595
           19           8      0.6000      0.0467   1408.5041    703.0000     49.2000
           19           9      0.6000      0.0533   1409.2288    703.0000     49.2405
           19          10      0.6000      0.0600   1409.9538    703.0000     49.2812
           19          11      0.6000      0.0667   1410.6790    703.0000     49.3219
           19          12      0.6000      0.0733   1411.4045    703.0000     49.3627
           19          13      0.6000      0.0800   1412.1302    703.0000     49.4036
           19          14      0.6000      0.0867   1412.8563    703.0000     49.4445
           19          15      0.6000      0.0933   1413.5826    703.0000     49.4856
           19          16      0.6000      0.1000   1414.3092    703.0000     49.5267
           19          17      0.6000      0.1067   1415.0361    703.0000     49.5679
           19          18      0.6000      0.1133   1415.7633    703.0000     49.6092
           19          19      0.6000      0.1200   1416.4908    703.0000     49.6506
           19          20      0.6000      0.1267   1417.2185    703.0000     49.6920
           19          21      0.6000      0.1333   1417.9465    703.0000     49.7335
           19          22      0.6000      0.1400   1418.6748    703.0000     49.7751
           19          23      0.6000      0.1467   1419.4032    703.0000     49.8168
           19          24      0.6000      0.1533   1420.1319    703.0000     49.8586
           19          25      0.6000      0.1600   1420.8607    703.0000     49.9004
           19          26      0.6000      0.1667   1421.5897    703.0000     49.9424
           19          27      0.6000      0.1733   1422.3187    703.0000     49.9843
           19          28      0.6000      0.1800   1423.0478    703.0000     50.0264
           19          29      0.6000      0.1867   1423.7770    703.0000     50.0685
           19          30      0.6000      0.1933   1424.5061    703.0000     50.1107
           19          31      0.6000      0.2000   1425.2352    703.0000     50.1529
           20           1      0.6333      0.0000   1403.3631    703.0000     48.9141
           20           2      0.6333      0.0067   1404.0821    703.0000     48.9539
           20           3      0.6333      0.0133   1404.8013    703.0000     48.9938
           20           4      0.6333      0.0200   1405.5210    703.0000     49.0337
           20           5      0.6333      0.0267   1406.2410    703.0000     49.0737
           20           6      0.6333      0.0333   1406.9615    703.0000     49.1138
           20           7      0.6333      0.0400   1407.6825    703.0000     49.1541
           20           8      0.6333      0.0467   1408.4041    703.0000     49.1944
           20           9      0.6333      0.0533   1409.1262    703.0000     49.2348
           20          10      0.6333      0.0600   1409.8489    703.0000     49.2753
           20          11      0.6333      0.0667   1410.5723    703.0000     49.3159
           20          12      0.6333      0.0733   1411.2963    703.0000     49.3566
           20          13      0.6333      0.0800   1412.0210    703.0000     49.3974
           20          14      0.6333      0.0867   1412.7464    703.0000     49.4383
           20          15      0.6333      0.0933   1413.4725    703.0000     49.4793
           20          16      0.6333      0.1000   1414.1993    703.0000     49.5205
           20          17      0.6333      0.1067   1414.9268    703.0000     49.5617
           20          18      0.6333      0.1133   1415.6550    703.0000     49.6030
           20          19      0.6333      0.1200   1416.3839    703.0000     49.6445
           20          20      0.6333      0.1267   1417.1135    703.0000     49.6860
           20          21      0.6333      0.1333   1417.8437    703.0000     49.7277
           20          22      0.6333      0.1400   1418.5746    703.0000     49.7694
           20          23      0.6333      0.1467   1419.3060    703.0000     49.8113
           20          24      0.6333      0.1533   1420.0380    703.0000     49.8532
           20          25      0.6333      0.1600   1420.7706    703.0000     49.8953
           20          26      0.6333      0.1667   1421.5036    703.0000     49.9374
           20          27      0.6333      0.1733   1422.2371    703.0000     49.9796
           20          28      0.6333      0.1800   1422.9709    703.0000     50.0219
           20          29      0.6333      0.1867   1423.7050    703.0000     50.0643
           20          30      0.6333      0.1933   1424.4394    703.0000     50.1068
           20          31      0.6333      0.2000   1425.1740    703.0000     50.1494
           21           1      0.6667      0.0000   1403.2602    703.0000     48.9084
           21           2      0.6667      0.0067   1403.9721    703.0000     48.9478
           21           3      0.6667      0.0133   1404.6847    703.0000     48.9873
           21           4      0.6667      0.0200   1405.3981    703.0000     49.0269
           21           5      0.6667      0.0267   1406.1124    703.0000     49.0666
           21           6      0.6667      0.0333   1406.8276    703.0000     49.1064
           21           7      0.6667      0.0400   1407.5438    703.0000     49.1463
           21           8      0.6667      0.0467   1408.2610    703.0000     49.1864
           21           9      0.6667      0.0533   1408.9793    703.0000     49.2265
           21          10      0.6667      0.0600   1409.6988    703.0000     49.2669
           21          11      0.6667      0.0667   1410.4195    703.0000     49.3073
           21          12      0.6667      0.0733   1411.1414    703.0000     49.3479
           21          13      0.6667      0.0800   1411.8645    703.0000     49.3886
           21          14      0.6667      0.0867   1412.5890    703.0000     49.4294
           21          15      0.6667      0.0933   1413.3147    703.0000     49.4704
           21          16      0.6667      0.1000   1414.0417    703.0000     49.5115
           21          17      0.6667      0.1067   1414.7700    703.0000     49.5528
           21          18      0.6667      0.1133   1415.4996    703.0000     49.5942
           21          19      0.6667      0.1200   1416.2304    703.0000     49.6357
           21          20      0.6667      0.1267   1416.9626    703.0000     49.6774
           21          21      0.6667      0.1333   1417.6959    703.0000     49.7192
           21          22      0.6667      0.1400   1418.4305    703.0000     49.7612
           21          23      0.6667      0.1467   1419.1662    703.0000     49.8033
           21          24      0.6667      0.1533   1419.9030    703.0000     49.8455
           21          25      0.6667      0.1600   1420.6409    703.0000     49.8878
           21          26      0.6667      0.1667   1421.3798    703.0000     49.9303
           21          27      0.6667      0.1733   1422.1195    703.0000     49.9729
           21          28      0.6667      0.1800   1422.8601    703.0000     50.0156
           21          29      0.6667      0.1867   1423.6014    703.0000     50.0584
           21          30      0.6667      0.1933   1424.3434    703.0000     50.1013
           21          31      0.6667      0.2000   1425.0860    703.0000     50.1443
           22           1      0.7000      0.0000   1403.1175    703.0000     48.9006
           22           2      0.7000      0.0067   1403.8196    703.0000     48.9394
           22           3      0.7000      0.0133   1404.5230    703.0000     48.9783
           22           4      0.7000      0.0200   1405.2278    703.0000     49.0174
           22           5      0.7000      0.0267   1405.9340    703.0000     49.0566
           22           6      0.7000      0.0333   1406.6418    703.0000     49.0960
           22           7      0.7000      0.0400   1407.3512    703.0000     49.1356
           22           8      0.7000      0.0467   1408.0624    703.0000     49.1753
           22           9      0.7000      0.0533   1408.7754    703.0000     49.2151
           22          10      0.7000      0.0600   1409.4903    703.0000     49.2552
           22          11      0.7000      0.0667   1410.2071    703.0000     49.2954
           22          12      0.7000      0.0733   1410.9259    703.0000     49.3358
           22          13      0.7000      0.0800   1411.6468    703.0000     49.3763
           22          14      0.7000      0.0867   1412.3697    703.0000     49.4171
           22          15      0.7000      0.0933   1413.0948    703.0000     49.4580
           22          16      0.7000      0.1000   1413.8219    703.0000     49.4991
           22          17      0.7000      0.1067   1414.5512    703.0000     49.5404
           22          18      0.7000      0.1133   1415.2826    703.0000     49.5819
           22          19      0.7000      0.1200   1416.0161    703.0000     49.6236
           22          20      0.7000      0.1267   1416.7517    703.0000     49.6654
           22          21      0.7000      0.1333   1417.4894    703.0000     49.7074
           22          22      0.7000      0.1400   1418.2290    703.0000     49.7497
           22          23      0.7000      0.1467   1418.9706    703.0000     49.7921
           22          24      0.7000      0.1533   1419.7140    703.0000     49.8346
           22          25      0.7000      0.1600   1420.4593    703.0000     49.8774
           22          26      0.7000      0.1667   1421.2062    703.0000     49.9203
           22          27      0.7000      0.1733   1421.9548    703.0000     49.9634
           22          28      0.7000      0.1800   1422.7048    703.0000     50.0066
           22          29      0.7000      0.1867   1423.4562    703.0000     50.0500
           22          30      0.7000      0.1933   1424.2088    703.0000     50.0935
           22          31      0.7000      0.2000   1424.9625    703.0000     50.1371
           23           1      0.7333      0.0000   1402.9232    703.0000     48.8898
           23           2      0.7333      0.0067   1403.6120    703.0000     48.9279
           23           3      0.7333      0.0133   1404.3028    703.0000     48.9661
           23           4      0.7333      0.0200   1404.9957    703.0000     49.0045
           23           5      0.7333      0.0267   1405.6908    703.0000     49.0431
           23           6      0.7333      0.0333   1406.3884    703.0000     49.0819
           23           7      0.7333      0.0400   1407.0885    703.0000     49.1209
           23           8      0.7333      0.0467   1407.7912    703.0000     49.1601
           23           9      0.7333      0.0533   1408.4967    703.0000     49.1995
           23          10      0.7333      0.0600   1409.2051    703.0000     49.2392
           23          11      0.7333      0.0667   1409.9164    703.0000     49.2791
           23          12      0.7333      0.0733   1410.6308    703.0000     49.3192
           23          13      0.7333      0.0800   1411.3483    703.0000     49.3595
           23          14      0.7333      0.0867   1412.0690    703.0000     49.4001
           23          15      0.7333      0.0933   1412.7928    703.0000     49.4409
           23          16      0.7333      0.1000   1413.5199    703.0000     49.4820
           23          17      0.7333      0.1067   1414.2503    703.0000     49.5234
           23          18      0.7333      0.1133   1414.9840    703.0000     49.5649
           23          19      0.7333      0.1200   1415.7209    703.0000     49.6068
           23          20      0.7333      0.1267   1416.4610    703.0000     49.6489
           23          21      0.7333      0.1333   1417.2043    703.0000     49.6912
           23          22      0.7333      0.1400   1417.9507    703.0000     49.7338
           23          23      0.7333      0.1467   1418.7002    703.0000     49.7766
           23          24      0.7333      0.1533   1419.4526    703.0000     49.8197
           23          25      0.7333      0.1600   1420.2079    703.0000     49.8630
           23          26      0.7333      0.1667   1420.9659    703.0000     49.9065
           23          27      0.7333      0.1733   1421.7265    703.0000     49.9502
           23          28      0.7333      0.1800   1422.4895    703.0000     49.9942
           23          29      0.7333      0.1867   1423.2548    703.0000     50.0383
           23          30      0.7333      0.1933   1424.0221    703.0000     50.0827
           23          31      0.7333      0.2000   1424.7913    703.0000     50.1272
           24           1      0.7667      0.0000   1402.6614    703.0000     48.8754
           24           2      0.7667      0.0067   1403.3322    703.0000     48.9124
           24           3      0.7667      0.0133   1404.0059    703.0000     48.9497
           24           4      0.7667      0.0200   1404.6827    703.0000     48.9872
           24           5      0.7667      0.0267   1405.3628    703.0000     49.0249
           24           6      0.7667      0.0333   1406.0463    703.0000     49.0629
           24           7      0.7667      0.0400   1406.7335    703.0000     49.1011
           24           8      0.7667      0.0467   1407.4246    703.0000     49.1397
           24           9      0.7667      0.0533   1408.1196    703.0000     49.1785
           24          10      0.7667      0.0600   1408.8188    703.0000     49.2176
           24          11      0.7667      0.0667   1409.5223    703.0000     49.2570
           24          12      0.7667      0.0733   1410.2302    703.0000     49.2967
           24          13      0.7667      0.0800   1410.9426    703.0000     49.3367
           24          14      0.7667      0.0867   1411.6597    703.0000     49.3770
           24          15      0.7667      0.0933   1412.3814    703.0000     49.4177
           24          16      0.7667      0.1000   1413.1080    703.0000     49.4587
           24          17      0.7667      0.1067   1413.8393    703.0000     49.5001
           24          18      0.7667      0.1133   1414.5755    703.0000     49.5418
           24          19      0.7667      0.1200   1415.3165    703.0000     49.5838
           24          20      0.7667      0.1267   1416.0623    703.0000     49.6262
           24          21      0.7667      0.1333   1416.8129    703.0000     49.6689
           24          22      0.7667      0.1400   1417.5682    703.0000     49.7119
           24          23      0.7667      0.1467   1418.3281    703.0000     49.7553
           24          24      0.7667      0.1533   1419.0925    703.0000     49.7990
           24          25      0.7667      0.1600   1419.8613    703.0000     49.8431
           24          26      0.7667      0.1667   1420.6343    703.0000     49.8874
           24          27      0.7667      0.1733   1421.4113    703.0000     49.9321
           24          28      0.7667      0.1800   1422.1921    703.0000     49.9770
           24          29      0.7667      0.1867   1422.9764    703.0000     50.0223
           24          30      0.7667      0.1933   1423.7639    703.0000     50.0678
           24          31      0.7667      0.2000   1424.5545    703.0000     50.1135
           25           1      0.8000      0.0000   1402.3121    703.0000     48.8561
           25           2      0.8000      0.0067   1402.9589    703.0000     48.8918
           25           3      0.8000      0.0133   1403.6096    703.0000     48.9278
           25           4      0.8000      0.0200   1404.2647    703.0000     48.9640
           25           5      0.8000      0.0267   1404.9242    703.0000     49.0006
           25           6      0.8000      0.0333   1405.5886    703.0000     49.0375
           25           7      0.8000      0.0400   1406.2581    703.0000     49.0747
           25           8      0.8000      0.0467   1406.9328    703.0000     49.1122
           25           9      0.8000      0.0533   1407.6132    703.0000     49.1502
           25          10      0.8000      0.0600   1408.2993    703.0000     49.1885
           25          11      0.8000      0.0667   1408.9913    703.0000     49.2272
           25          12      0.8000      0.0733   1409.6896    703.0000     49.2663
           25          13      0.8000      0.0800   1410.3942    703.0000     49.3059
           25          14      0.8000      0.0867   1411.1054    703.0000     49.3458
           25          15      0.8000      0.0933   1411.8233    703.0000     49.3863
           25          16      0.8000      0.1000   1412.5479    703.0000     49.4271
           25          17      0.8000      0.1067   1413.2795    703.0000     49.4684
           25          18      0.8000      0.1133   1414.0181    703.0000     49.5102
           25          19      0.8000      0.1200   1414.7636    703.0000     49.5524
           25          20      0.8000      0.1267   1415.5162    703.0000     49.5951
           25          21      0.8000      0.1333   1416.2758    703.0000     49.6383
           25          22      0.8000      0.1400   1417.0424    703.0000     49.6820
           25          23      0.8000      0.1467   1417.8158    703.0000     49.7261
           25          24      0.8000      0.1533   1418.5960    703.0000     49.7706
           25          25      0.8000      0.1600   1419.3827    703.0000     49.8157
           25          26      0.8000      0.1667   1420.1758    703.0000     49.8611
           25          27      0.8000      0.1733   1420.9749    703.0000     49.9070
           25          28      0.8000      0.1800   1421.7799    703.0000     49.9533
           25          29      0.8000      0.1867   1422.5903    703.0000     50.0000
           25          30      0.8000      0.1933   1423.4058    703.0000     50.0471
           25          31      0.8000      0.2000   1424.2259    703.0000     50.0945
           26           1      0.8333      0.0000   1401.8506    703.0000     48.8307
           26           2      0.8333      0.0067   1402.4655    703.0000     48.8646
           26           3      0.8333      0.0133   1403.0856    703.0000     48.8988
           26           4      0.8333      0.0200   1403.7115    703.0000     48.9334
           26           5      0.8333      0.0267   1404.3433    703.0000     48.9684
           26           6      0.8333      0.0333   1404.9815    703.0000     49.0037
           26           7      0.8333      0.0400   1405.6265    703.0000     49.0396
           26           8      0.8333      0.0467   1406.2785    703.0000     49.0758
           26           9      0.8333      0.0533   1406.9379    703.0000     49.1125
           26          10      0.8333      0.0600   1407.6051    703.0000     49.1497
           26          11      0.8333      0.0667   1408.2803    703.0000     49.1874
           26          12      0.8333      0.0733   1408.9640    703.0000     49.2257
           26          13      0.8333      0.0800   1409.6563    703.0000     49.2645
           26          14      0.8333      0.0867   1410.3577    703.0000     49.3038
           26          15      0.8333      0.0933   1411.0683    703.0000     49.3438
           26          16      0.8333      0.1000   1411.7884    703.0000     49.3843
           26          17      0.8333      0.1067   1412.5181    703.0000     49.4254
           26          18      0.8333      0.1133   1413.2578    703.0000     49.4672
           26          19      0.8333      0.1200   1414.0074    703.0000     49.5096
           26          20      0.8333      0.1267   1414.7672    703.0000     49.5526
           26          21      0.8333      0.1333   1415.5372    703.0000     49.5963
           26          22      0.8333      0.1400   1416.3173    703.0000     49.6407
           26          23      0.8333      0.1467   1417.1076    703.0000     49.6857
           26          24      0.8333      0.1533   1417.9078    703.0000     49.7313
           26          25      0.8333      0.1600   1418.7179    703.0000     49.7776
           26          26      0.8333      0.1667   1419.5376    703.0000     49.8245
           26          27      0.8333      0.1733   1420.3666    703.0000     49.8721
           26          28      0.8333      0.1800   1421.2045    703.0000     49.9202
           26          29      0.8333      0.1867   1422.0507    703.0000     49.9689
           26          30      0.8333      0.1933   1422.9049    703.0000     50.0181
           26          31      0.8333      0.2000   1423.7663    703.0000     50.0679
           27           1      0.8667      0.0000   1401.2483    703.0000     48.7975
           27           2      0.8667      0.0067   1401.8215    703.0000     48.8291
           27           3      0.8667      0.0133   1402.4013    703.0000     48.8610
           27           4      0.8667      0.0200   1402.9882    703.0000     48.8934
           27           5      0.8667      0.0267   1403.5827    703.0000     48.9263
           27           6      0.8667      0.0333   1404.1852    703.0000     48.9596
           27           7      0.8667      0.0400   1404.7962    703.0000     48.9935
           27           8      0.8667      0.0467   1405.4162    703.0000     49.0279
           27           9      0.8667      0.0533   1406.0457    703.0000     49.0629
           27          10      0.8667      0.0600   1406.6853    703.0000     49.0985
           27          11      0.8667      0.0667   1407.3353    703.0000     49.1347
           27          12      0.8667      0.0733   1407.9963    703.0000     49.1716
           27          13      0.8667      0.0800   1408.6688    703.0000     49.2092
           27          14      0.8667      0.0867   1409.3533    703.0000     49.2475
           27          15      0.8667      0.0933   1410.0503    703.0000     49.2866
           27          16      0.8667      0.1000   1410.7601    703.0000     49.3264
           27          17      0.8667      0.1067   1411.4832    703.0000     49.3671
           27          18      0.8667      0.1133   1412.2201    703.0000     49.4086
           27          19      0.8667      0.1200   1412.9711    703.0000     49.4510
           27          20      0.8667      0.1267   1413.7364    703.0000     49.4943
           27          21      0.8667      0.1333   1414.5164    703.0000     49.5384
           27          22      0.8667      0.1400   1415.3112    703.0000     49.5835
           27          23      0.8667      0.1467   1416.1210    703.0000     49.6295
           27          24      0.8667      0.1533   1416.9457    703.0000     49.6765
           27          25      0.8667      0.1600   1417.7853    703.0000     49.7243
           27          26      0.8667      0.1667   1418.6395    703.0000     49.7731
           27          27      0.8667      0.1733   1419.5080    703.0000     49.8228
           27          28      0.8667      0.1800   1420.3904    703.0000     49.8734
           27          29      0.8667      0.1867   1421.2861    703.0000     49.9249
           27          30      0.8667      0.1933   1422.1942    703.0000     49.9772
           27          31      0.8667      0.2000   1423.1140    703.0000     50.0302
           28           1      0.9000      0.0000   1400.4758    703.0000     48.7551
           28           2      0.9000      0.0067   1400.9951    703.0000     48.7836
           28           3      0.9000      0.0133   1401.5223    703.0000     48.8126
           28           4      0.9000      0.0200   1402.0578    703.0000     48.8421
           28           5      0.9000      0.0267   1402.6023    703.0000     48.8721
           28           6      0.9000      0.0333   1403.1564    703.0000     48.9027
           28           7      0.9000      0.0400   1403.7206    703.0000     48.9339
           28           8      0.9000      0.0467   1404.2957    703.0000     48.9657
           28           9      0.9000      0.0533   1404.8822    703.0000     48.9982
           28          10      0.9000      0.0600   1405.4810    703.0000     49.0315
           28          11      0.9000      0.0667   1406.0928    703.0000     49.0655
           28          12      0.9000      0.0733   1406.7183    703.0000     49.1003
           28          13      0.9000      0.0800   1407.3582    703.0000     49.1360
           28          14      0.9000      0.0867   1408.0135    703.0000     49.1725
           28          15      0.9000      0.0933   1408.6848    703.0000     49.2101
           28          16      0.9000      0.1000   1409.3731    703.0000     49.2486
           28          17      0.9000      0.1067   1410.0791    703.0000     49.2882
           28          18      0.9000      0.1133   1410.8037    703.0000     49.3289
           28          19      0.9000      0.1200   1411.5477    703.0000     49.3707
           28          20      0.9000      0.1267   1412.3118    703.0000     49.4138
           28          21      0.9000      0.1333   1413.0968    703.0000     49.4581
           28          22      0.9000      0.1400   1413.9033    703.0000     49.5037
           28          23      0.9000      0.1467   1414.7318    703.0000     49.5506
           28          24      0.9000      0.1533   1415.5829    703.0000     49.5989
           28          25      0.9000      0.1600   1416.4568    703.0000     49.6486
           28          26      0.9000      0.1667   1417.3535    703.0000     49.6997
           28          27      0.9000      0.1733   1418.2730    703.0000     49.7522
           28          28      0.9000      0.1800   1419.2149    703.0000     49.8061
           28          29      0.9000      0.1867   1420.1785    703.0000     49.8613
           28          30      0.9000      0.1933   1421.1629    703.0000     49.9178
           28          31      0.9000      0.2000   1422.1667    703.0000     49.9756
           29           1      0.9333      0.0000   1399.5073    703.0000     48.7019
           29           2      0.9333      0.0067   1399.9589    703.0000     48.7267
           29           3      0.9333      0.0133   1400.4188    703.0000     48.7519
           29           4      0.9333      0.0200   1400.8878    703.0000     48.7777
           29           5      0.9333      0.0267   1401.3665    703.0000     48.8040
           29           6      0.9333      0.0333   1401.8557    703.0000     48.8309
           29           7      0.9333      0.0400   1402.3560    703.0000     48.8585
           29           8      0.9333      0.0467   1402.8684    703.0000     48.8868
           29           9      0.9333      0.0533   1403.3936    703.0000     48.9158
           29          10      0.9333      0.0600   1403.9326    703.0000     48.9456
           29          11      0.9333      0.0667   1404.4864    703.0000     48.9763
           29          12      0.9333      0.0733   1405.0560    703.0000     49.0079
           29          13      0.9333      0.0800   1405.6427    703.0000     49.0405
           29          14      0.9333      0.0867   1406.2476    703.0000     49.0741
           29          15      0.9333      0.0933   1406.8720    703.0000     49.1089
           29          16      0.9333      0.1000   1407.5172    703.0000     49.1448
           29          17      0.9333      0.1067   1408.1849    703.0000     49.1821
           29          18      0.9333      0.1133   1408.8763    703.0000     49.2208
           29          19      0.9333      0.1200   1409.5933    703.0000     49.2609
           29          20      0.9333      0.1267   1410.3374    703.0000     49.3027
           29          21      0.9333      0.1333   1411.1103    703.0000     49.3461
           29          22      0.9333      0.1400   1411.9137    703.0000     49.3914
           29          23      0.9333      0.1467   1412.7494    703.0000     49.4385
           29          24      0.9333      0.1533   1413.6190    703.0000     49.4876
           29          25      0.9333      0.1600   1414.5239    703.0000     49.5389
           29          26      0.9333      0.1667   1415.4656    703.0000     49.5923
           29          27      0.9333      0.1733   1416.4448    703.0000     49.6479
           29          28      0.9333      0.1800   1417.4623    703.0000     49.7059
           29          29      0.9333      0.1867   1418.5178    703.0000     49.7662
           29          30      0.9333      0.1933   1419.6106    703.0000     49.8287
           29          31      0.9333      0.2000   1420.7391    703.0000     49.8935
           30           1      0.9667      0.0000   1398.3303    703.0000     48.6375
           30           2      0.9667      0.0067   1398.6987    703.0000     48.6577
           30           3      0.9667      0.0133   1399.0752    703.0000     48.6783
           30           4      0.9667      0.0200   1399.4604    703.0000     48.6994
           30           5      0.9667      0.0267   1399.8549    703.0000     48.7210
           30           6      0.9667      0.0333   1400.2593    703.0000     48.7432
           30           7      0.9667      0.0400   1400.6747    703.0000     48.7660
           30           8      0.9667      0.0467   1401.1017    703.0000     48.7894
           30           9      0.9667      0.0533   1401.5414    703.0000     48.8136
           30          10      0.9667      0.0600   1401.9948    703.0000     48.8386
           30          11      0.9667      0.0667   1402.4631    703.0000     48.8644
           30          12      0.9667      0.0733   1402.9475    703.0000     48.8912
           30          13      0.9667      0.0800   1403.4495    703.0000     48.9189
           30          14      0.9667      0.0867   1403.9707    703.0000     48.9477
           30          15      0.9667      0.0933   1404.5128    703.0000     48.9778
           30          16      0.9667      0.1000   1405.0776    703.0000     49.0091
           30          17      0.9667      0.1067   1405.6675    703.0000     49.0418
           30          18      0.9667      0.1133   1406.2847    703.0000     49.0762
           30          19      0.9667      0.1200   1406.9319    703.0000     49.1122
           30          20      0.9667      0.1267   1407.6121    703.0000     49.1501
           30          21      0.9667      0.1333   1408.3286    703.0000     49.1901
           30          22      0.9667      0.1400   1409.0851    703.0000     49.2325
           30          23      0.9667      0.1467   1409.8856    703.0000     49.2773
           30          24      0.9667      0.1533   1410.7346    703.0000     49.3250
           30          25      0.9667      0.1600   1411.6368    703.0000     49.3758
           30          26      0.9667      0.1667   1412.5974    703.0000     49.4299
           30          27      0.9667      0.1733   1413.6216    703.0000     49.4878
           30          28      0.9667      0.1800   1414.7146    703.0000     49.5497
           30          29      0.9667      0.1867   1415.8809    703.0000     49.6159
           30          30      0.9667      0.1933   1417.1240    703.0000     49.6866
           30          31      0.9667      0.2000   1418.4445    703.0000     49.7620
           31           1      1.0000      0.0000   1396.9565    703.0000     48.5626
           31           2      1.0000      0.0067   1397.2275    703.0000     48.5774
           31           3      1.0000      0.0133   1397.5047    703.0000     48.5925
           31           4      1.0000      0.0200   1397.7887    703.0000     48.6080
           31           5      1.0000      0.0267   1398.0799    703.0000     48.6239
           31           6      1.0000      0.0333   1398.3791    703.0000     48.6402
           31           7      1.0000      0.0400   1398.6867    703.0000     48.6570
           31           8      1.0000      0.0467   1399.0035    703.0000     48.6744
           31           9      1.0000      0.0533   1399.3304    703.0000     48.6922
           31          10      1.0000      0.0600   1399.6682    703.0000     48.7108
           31          11      1.0000      0.0667   1400.0179    703.0000     48.7299
           31          12      1.0000      0.0733   1400.3806    703.0000     48.7498
           31          13      1.0000      0.0800   1400.7577    703.0000     48.7705
           31          14      1.0000      0.0867   1401.1504    703.0000     48.7921
           31          15      1.0000      0.0933   1401.5605    703.0000     48.8147
           31          16      1.0000      0.1000   1401.9898    703.0000     48.8383
           31          17      1.0000      0.1067   1402.4405    703.0000     48.8632
           31          18      1.0000      0.1133   1402.9150    703.0000     48.8894
           31          19      1.0000      0.1200   1403.4164    703.0000     48.9171
           31          20      1.0000      0.1267   1403.9481    703.0000     48.9465
           31          21      1.0000      0.1333   1404.5142    703.0000     48.9778
           31          22      1.0000      0.1400   1405.1200    703.0000     49.0114
           31          23      1.0000      0.1467   1405.7716    703.0000     49.0476
           31          24      1.0000      0.1533   1406.4768    703.0000     49.0868
           31          25      1.0000      0.1600   1407.2453    703.0000     49.1297
           31          26      1.0000      0.1667   1408.0896    703.0000     49.1768
           31          27      1.0000      0.1733   1409.0259    703.0000     49.2292
           31          28      1.0000      0.1800   1410.0752    703.0000     49.2880
           31          29      1.0000      0.1867   1411.2656    703.0000     49.3549
           31          30      1.0000      0.1933   1412.6346    703.0000     49.4320
           31          31      1.0000      0.2000   1414.2333    703.0000     49.5224
