 ====================================================================================
               Transient state solution for a 2D rectangular plate
                    for applications in steel reheating
                 e.g. Reheating furnaces for rolling processing
 ====================================================================================
 Author: Dickson Alves de Souza

 Based on lectures by professor Roberto Parreiras Tavares

 and book Numerical Heat Transfer and Fluid Flow
 by Suhas V. Patankar (1980)

 Federal University of Minas Gerais (UFMG)
 October 26th, 2017
 ====================================================================================
                              Input parameters:

 Lenght in X direction (meters):           1.0000
 Lenght in Y direction (meters):           0.2000
 Nodes in X direction:                         31
 Nodes in Y direction:                         31
 ====================================================================================

                       STAGE                1/  5
                       START Time:         0.0000
                       END Time:        1140.0000
                       Iterations:             2215

 ====================================================================================
 Temperature of fluid at left face (T left):             1223.1500
 Temperature of fluid at right face (T right):           1223.1500
 Temperature of fluid at bottom face (T bottom):         1223.1500
 Temperature of fluid at top face (T top):               1223.1500
 ------------------------------------------------------------------------------------
 Heat transfer coefficient at left face (H left):          50.0000
 Heat transfer coefficient at right face (H right):        50.0000
 Heat transfer coefficient at bottom face (H bottom):       8.0000
 Heat transfer coefficient at top face (H top):           150.0000
 ====================================================================================


 ====================================================================================

                       STAGE                2/  5
                       START Time:      1140.0000
                       END Time:        3060.0000
                       Iterations:             2215

 ====================================================================================
 Temperature of fluid at left face (T left):             1423.1500
 Temperature of fluid at right face (T right):           1423.1500
 Temperature of fluid at bottom face (T bottom):         1423.1500
 Temperature of fluid at top face (T top):               1423.1500
 ------------------------------------------------------------------------------------
 Heat transfer coefficient at left face (H left):          50.0000
 Heat transfer coefficient at right face (H right):        50.0000
 Heat transfer coefficient at bottom face (H bottom):       8.0000
 Heat transfer coefficient at top face (H top):           150.0000
 ====================================================================================


 ====================================================================================

                       STAGE                3/  5
                       START Time:      3060.0000
                       END Time:        4980.0000
                       Iterations:             2215

 ====================================================================================
 Temperature of fluid at left face (T left):             1513.1500
 Temperature of fluid at right face (T right):           1513.1500
 Temperature of fluid at bottom face (T bottom):         1513.1500
 Temperature of fluid at top face (T top):               1513.1500
 ------------------------------------------------------------------------------------
 Heat transfer coefficient at left face (H left):          50.0000
 Heat transfer coefficient at right face (H right):        50.0000
 Heat transfer coefficient at bottom face (H bottom):       8.0000
 Heat transfer coefficient at top face (H top):           150.0000
 ====================================================================================


 ====================================================================================

                       STAGE                4/  5
                       START Time:      4980.0000
                       END Time:        8400.0000
                       Iterations:             2215

 ====================================================================================
 Temperature of fluid at left face (T left):             1503.1500
 Temperature of fluid at right face (T right):           1503.1500
 Temperature of fluid at bottom face (T bottom):         1503.1500
 Temperature of fluid at top face (T top):               1523.1500
 ------------------------------------------------------------------------------------
 Heat transfer coefficient at left face (H left):          50.0000
 Heat transfer coefficient at right face (H right):        50.0000
 Heat transfer coefficient at bottom face (H bottom):       8.0000
 Heat transfer coefficient at top face (H top):           150.0000
 ====================================================================================


 ====================================================================================

                       STAGE                5/  5
                       START Time:      8400.0000
                       END Time:       18400.0000
                       Iterations:             2215

 ====================================================================================
 Temperature of fluid at left face (T left):             1393.1500
 Temperature of fluid at right face (T right):           1393.1500
 Temperature of fluid at bottom face (T bottom):         1393.1500
 Temperature of fluid at top face (T top):               1433.1500
 ------------------------------------------------------------------------------------
 Heat transfer coefficient at left face (H left):          50.0000
 Heat transfer coefficient at right face (H right):        50.0000
 Heat transfer coefficient at bottom face (H bottom):       8.0000
 Heat transfer coefficient at top face (H top):           150.0000
 ====================================================================================


 SOLUTION of LINEAR SYSTEM: TDMA (tri-diagonal matrix algorithm)
      ADI approach employed in solution.
 Tolerance:       0.0010

 ====================================================================================
                    Calculation Results
 Current time:    17200.000000000000       seconds
 Maximum Temperature :    1425.3290525553039
 Minimum Temperature :    1396.9637050055296
 Average(algebraic, non-weigthed) Temperature :    1411.8669432133165
 ====================================================================================
            I           J        X(m)        Y(m)        T(K)  Cp(J/kg.K) K(W/sq-m.K)
 ====================================================================================
            1           1      0.0000      0.0000   1396.9637    703.0000     48.5630
            1           2      0.0000      0.0067   1397.2352    703.0000     48.5778
            1           3      0.0000      0.0133   1397.5128    703.0000     48.5929
            1           4      0.0000      0.0200   1397.7972    703.0000     48.6084
            1           5      0.0000      0.0267   1398.0889    703.0000     48.6244
            1           6      0.0000      0.0333   1398.3884    703.0000     48.6407
            1           7      0.0000      0.0400   1398.6963    703.0000     48.6575
            1           8      0.0000      0.0467   1399.0135    703.0000     48.6749
            1           9      0.0000      0.0533   1399.3406    703.0000     48.6928
            1          10      0.0000      0.0600   1399.6786    703.0000     48.7113
            1          11      0.0000      0.0667   1400.0285    703.0000     48.7305
            1          12      0.0000      0.0733   1400.3913    703.0000     48.7504
            1          13      0.0000      0.0800   1400.7685    703.0000     48.7711
            1          14      0.0000      0.0867   1401.1613    703.0000     48.7927
            1          15      0.0000      0.0933   1401.5714    703.0000     48.8153
            1          16      0.0000      0.1000   1402.0007    703.0000     48.8389
            1          17      0.0000      0.1067   1402.4513    703.0000     48.8638
            1          18      0.0000      0.1133   1402.9257    703.0000     48.8900
            1          19      0.0000      0.1200   1403.4269    703.0000     48.9177
            1          20      0.0000      0.1267   1403.9584    703.0000     48.9471
            1          21      0.0000      0.1333   1404.5243    703.0000     48.9784
            1          22      0.0000      0.1400   1405.1298    703.0000     49.0120
            1          23      0.0000      0.1467   1405.7811    703.0000     49.0482
            1          24      0.0000      0.1533   1406.4860    703.0000     49.0874
            1          25      0.0000      0.1600   1407.2541    703.0000     49.1302
            1          26      0.0000      0.1667   1408.0980    703.0000     49.1773
            1          27      0.0000      0.1733   1409.0338    703.0000     49.2296
            1          28      0.0000      0.1800   1410.0827    703.0000     49.2884
            1          29      0.0000      0.1867   1411.2726    703.0000     49.3553
            1          30      0.0000      0.1933   1412.6411    703.0000     49.4324
            1          31      0.0000      0.2000   1414.2392    703.0000     49.5227
            2           1      0.0333      0.0000   1398.3395    703.0000     48.6380
            2           2      0.0333      0.0067   1398.7086    703.0000     48.6582
            2           3      0.0333      0.0133   1399.0857    703.0000     48.6788
            2           4      0.0333      0.0200   1399.4714    703.0000     48.7000
            2           5      0.0333      0.0267   1399.8663    703.0000     48.7216
            2           6      0.0333      0.0333   1400.2713    703.0000     48.7438
            2           7      0.0333      0.0400   1400.6870    703.0000     48.7667
            2           8      0.0333      0.0467   1401.1144    703.0000     48.7901
            2           9      0.0333      0.0533   1401.5545    703.0000     48.8144
            2          10      0.0333      0.0600   1402.0081    703.0000     48.8393
            2          11      0.0333      0.0667   1402.4766    703.0000     48.8652
            2          12      0.0333      0.0733   1402.9613    703.0000     48.8919
            2          13      0.0333      0.0800   1403.4634    703.0000     48.9197
            2          14      0.0333      0.0867   1403.9846    703.0000     48.9485
            2          15      0.0333      0.0933   1404.5267    703.0000     48.9785
            2          16      0.0333      0.1000   1405.0915    703.0000     49.0099
            2          17      0.0333      0.1067   1405.6813    703.0000     49.0426
            2          18      0.0333      0.1133   1406.2984    703.0000     49.0769
            2          19      0.0333      0.1200   1406.9454    703.0000     49.1129
            2          20      0.0333      0.1267   1407.6253    703.0000     49.1509
            2          21      0.0333      0.1333   1408.3416    703.0000     49.1909
            2          22      0.0333      0.1400   1409.0977    703.0000     49.2332
            2          23      0.0333      0.1467   1409.8978    703.0000     49.2780
            2          24      0.0333      0.1533   1410.7463    703.0000     49.3257
            2          25      0.0333      0.1600   1411.6481    703.0000     49.3764
            2          26      0.0333      0.1667   1412.6082    703.0000     49.4305
            2          27      0.0333      0.1733   1413.6318    703.0000     49.4883
            2          28      0.0333      0.1800   1414.7242    703.0000     49.5502
            2          29      0.0333      0.1867   1415.8899    703.0000     49.6164
            2          30      0.0333      0.1933   1417.1323    703.0000     49.6871
            2          31      0.0333      0.2000   1418.4522    703.0000     49.7624
            3           1      0.0667      0.0000   1399.5187    703.0000     48.7026
            3           2      0.0667      0.0067   1399.9710    703.0000     48.7274
            3           3      0.0667      0.0133   1400.4317    703.0000     48.7526
            3           4      0.0667      0.0200   1400.9014    703.0000     48.7784
            3           5      0.0667      0.0267   1401.3807    703.0000     48.8048
            3           6      0.0667      0.0333   1401.8705    703.0000     48.8318
            3           7      0.0667      0.0400   1402.3713    703.0000     48.8594
            3           8      0.0667      0.0467   1402.8841    703.0000     48.8877
            3           9      0.0667      0.0533   1403.4097    703.0000     48.9167
            3          10      0.0667      0.0600   1403.9490    703.0000     48.9465
            3          11      0.0667      0.0667   1404.5031    703.0000     48.9772
            3          12      0.0667      0.0733   1405.0730    703.0000     49.0088
            3          13      0.0667      0.0800   1405.6598    703.0000     49.0414
            3          14      0.0667      0.0867   1406.2648    703.0000     49.0750
            3          15      0.0667      0.0933   1406.8892    703.0000     49.1098
            3          16      0.0667      0.1000   1407.5344    703.0000     49.1458
            3          17      0.0667      0.1067   1408.2019    703.0000     49.1831
            3          18      0.0667      0.1133   1408.8932    703.0000     49.2217
            3          19      0.0667      0.1200   1409.6099    703.0000     49.2619
            3          20      0.0667      0.1267   1410.3537    703.0000     49.3036
            3          21      0.0667      0.1333   1411.1263    703.0000     49.3470
            3          22      0.0667      0.1400   1411.9293    703.0000     49.3922
            3          23      0.0667      0.1467   1412.7645    703.0000     49.4393
            3          24      0.0667      0.1533   1413.6335    703.0000     49.4884
            3          25      0.0667      0.1600   1414.5379    703.0000     49.5396
            3          26      0.0667      0.1667   1415.4789    703.0000     49.5930
            3          27      0.0667      0.1733   1416.4574    703.0000     49.6487
            3          28      0.0667      0.1800   1417.4741    703.0000     49.7066
            3          29      0.0667      0.1867   1418.5289    703.0000     49.7668
            3          30      0.0667      0.1933   1419.6209    703.0000     49.8293
            3          31      0.0667      0.2000   1420.7485    703.0000     49.8940
            4           1      0.1000      0.0000   1400.4897    703.0000     48.7558
            4           2      0.1000      0.0067   1401.0100    703.0000     48.7844
            4           3      0.1000      0.0133   1401.5381    703.0000     48.8135
            4           4      0.1000      0.0200   1402.0745    703.0000     48.8430
            4           5      0.1000      0.0267   1402.6198    703.0000     48.8731
            4           6      0.1000      0.0333   1403.1745    703.0000     48.9037
            4           7      0.1000      0.0400   1403.7394    703.0000     48.9349
            4           8      0.1000      0.0467   1404.3150    703.0000     48.9668
            4           9      0.1000      0.0533   1404.9021    703.0000     48.9993
            4          10      0.1000      0.0600   1405.5013    703.0000     49.0326
            4          11      0.1000      0.0667   1406.1134    703.0000     49.0666
            4          12      0.1000      0.0733   1406.7391    703.0000     49.1015
            4          13      0.1000      0.0800   1407.3792    703.0000     49.1371
            4          14      0.1000      0.0867   1408.0346    703.0000     49.1737
            4          15      0.1000      0.0933   1408.7060    703.0000     49.2112
            4          16      0.1000      0.1000   1409.3942    703.0000     49.2498
            4          17      0.1000      0.1067   1410.1001    703.0000     49.2894
            4          18      0.1000      0.1133   1410.8244    703.0000     49.3300
            4          19      0.1000      0.1200   1411.5681    703.0000     49.3719
            4          20      0.1000      0.1267   1412.3319    703.0000     49.4149
            4          21      0.1000      0.1333   1413.1164    703.0000     49.4592
            4          22      0.1000      0.1400   1413.9224    703.0000     49.5048
            4          23      0.1000      0.1467   1414.7503    703.0000     49.5517
            4          24      0.1000      0.1533   1415.6008    703.0000     49.5999
            4          25      0.1000      0.1600   1416.4739    703.0000     49.6496
            4          26      0.1000      0.1667   1417.3699    703.0000     49.7006
            4          27      0.1000      0.1733   1418.2885    703.0000     49.7531
            4          28      0.1000      0.1800   1419.2295    703.0000     49.8069
            4          29      0.1000      0.1867   1420.1922    703.0000     49.8621
            4          30      0.1000      0.1933   1421.1755    703.0000     49.9185
            4          31      0.1000      0.2000   1422.1782    703.0000     49.9762
            5           1      0.1333      0.0000   1401.2648    703.0000     48.7984
            5           2      0.1333      0.0067   1401.8390    703.0000     48.8300
            5           3      0.1333      0.0133   1402.4199    703.0000     48.8620
            5           4      0.1333      0.0200   1403.0078    703.0000     48.8945
            5           5      0.1333      0.0267   1403.6032    703.0000     48.9274
            5           6      0.1333      0.0333   1404.2065    703.0000     48.9608
            5           7      0.1333      0.0400   1404.8182    703.0000     48.9947
            5           8      0.1333      0.0467   1405.4389    703.0000     49.0291
            5           9      0.1333      0.0533   1406.0690    703.0000     49.0642
            5          10      0.1333      0.0600   1406.7091    703.0000     49.0998
            5          11      0.1333      0.0667   1407.3595    703.0000     49.1360
            5          12      0.1333      0.0733   1408.0208    703.0000     49.1729
            5          13      0.1333      0.0800   1408.6935    703.0000     49.2106
            5          14      0.1333      0.0867   1409.3781    703.0000     49.2489
            5          15      0.1333      0.0933   1410.0751    703.0000     49.2880
            5          16      0.1333      0.1000   1410.7848    703.0000     49.3278
            5          17      0.1333      0.1067   1411.5078    703.0000     49.3685
            5          18      0.1333      0.1133   1412.2444    703.0000     49.4100
            5          19      0.1333      0.1200   1412.9951    703.0000     49.4524
            5          20      0.1333      0.1267   1413.7600    703.0000     49.4956
            5          21      0.1333      0.1333   1414.5394    703.0000     49.5397
            5          22      0.1333      0.1400   1415.3337    703.0000     49.5848
            5          23      0.1333      0.1467   1416.1427    703.0000     49.6308
            5          24      0.1333      0.1533   1416.9667    703.0000     49.6777
            5          25      0.1333      0.1600   1417.8054    703.0000     49.7255
            5          26      0.1333      0.1667   1418.6587    703.0000     49.7742
            5          27      0.1333      0.1733   1419.5262    703.0000     49.8239
            5          28      0.1333      0.1800   1420.4076    703.0000     49.8744
            5          29      0.1333      0.1867   1421.3021    703.0000     49.9258
            5          30      0.1333      0.1933   1422.2091    703.0000     49.9780
            5          31      0.1333      0.2000   1423.1276    703.0000     50.0310
            6           1      0.1667      0.0000   1401.8692    703.0000     48.8317
            6           2      0.1667      0.0067   1402.4854    703.0000     48.8657
            6           3      0.1667      0.0133   1403.1068    703.0000     48.9000
            6           4      0.1667      0.0200   1403.7337    703.0000     48.9346
            6           5      0.1667      0.0267   1404.3666    703.0000     48.9697
            6           6      0.1667      0.0333   1405.0057    703.0000     49.0051
            6           7      0.1667      0.0400   1405.6515    703.0000     49.0409
            6           8      0.1667      0.0467   1406.3043    703.0000     49.0772
            6           9      0.1667      0.0533   1406.9644    703.0000     49.1140
            6          10      0.1667      0.0600   1407.6321    703.0000     49.1512
            6          11      0.1667      0.0667   1408.3078    703.0000     49.1890
            6          12      0.1667      0.0733   1408.9918    703.0000     49.2272
            6          13      0.1667      0.0800   1409.6844    703.0000     49.2660
            6          14      0.1667      0.0867   1410.3859    703.0000     49.3054
            6          15      0.1667      0.0933   1411.0965    703.0000     49.3453
            6          16      0.1667      0.1000   1411.8165    703.0000     49.3859
            6          17      0.1667      0.1067   1412.5461    703.0000     49.4270
            6          18      0.1667      0.1133   1413.2854    703.0000     49.4688
            6          19      0.1667      0.1200   1414.0347    703.0000     49.5111
            6          20      0.1667      0.1267   1414.7940    703.0000     49.5542
            6          21      0.1667      0.1333   1415.5633    703.0000     49.5978
            6          22      0.1667      0.1400   1416.3428    703.0000     49.6421
            6          23      0.1667      0.1467   1417.1323    703.0000     49.6871
            6          24      0.1667      0.1533   1417.9317    703.0000     49.7327
            6          25      0.1667      0.1600   1418.7408    703.0000     49.7789
            6          26      0.1667      0.1667   1419.5594    703.0000     49.8258
            6          27      0.1667      0.1733   1420.3873    703.0000     49.8733
            6          28      0.1667      0.1800   1421.2239    703.0000     49.9213
            6          29      0.1667      0.1867   1422.0689    703.0000     49.9699
            6          30      0.1667      0.1933   1422.9217    703.0000     50.0191
            6          31      0.1667      0.2000   1423.7817    703.0000     50.0688
            7           1      0.2000      0.0000   1402.3328    703.0000     48.8572
            7           2      0.2000      0.0067   1402.9810    703.0000     48.8930
            7           3      0.2000      0.0133   1403.6331    703.0000     48.9291
            7           4      0.2000      0.0200   1404.2893    703.0000     48.9654
            7           5      0.2000      0.0267   1404.9500    703.0000     49.0020
            7           6      0.2000      0.0333   1405.6155    703.0000     49.0389
            7           7      0.2000      0.0400   1406.2859    703.0000     49.0762
            7           8      0.2000      0.0467   1406.9615    703.0000     49.1138
            7           9      0.2000      0.0533   1407.6425    703.0000     49.1518
            7          10      0.2000      0.0600   1408.3292    703.0000     49.1902
            7          11      0.2000      0.0667   1409.0218    703.0000     49.2289
            7          12      0.2000      0.0733   1409.7204    703.0000     49.2681
            7          13      0.2000      0.0800   1410.4253    703.0000     49.3076
            7          14      0.2000      0.0867   1411.1367    703.0000     49.3476
            7          15      0.2000      0.0933   1411.8545    703.0000     49.3880
            7          16      0.2000      0.1000   1412.5791    703.0000     49.4289
            7          17      0.2000      0.1067   1413.3105    703.0000     49.4702
            7          18      0.2000      0.1133   1414.0487    703.0000     49.5119
            7          19      0.2000      0.1200   1414.7938    703.0000     49.5542
            7          20      0.2000      0.1267   1415.5459    703.0000     49.5968
            7          21      0.2000      0.1333   1416.3048    703.0000     49.6400
            7          22      0.2000      0.1400   1417.0706    703.0000     49.6836
            7          23      0.2000      0.1467   1417.8432    703.0000     49.7276
            7          24      0.2000      0.1533   1418.6224    703.0000     49.7722
            7          25      0.2000      0.1600   1419.4080    703.0000     49.8171
            7          26      0.2000      0.1667   1420.1999    703.0000     49.8625
            7          27      0.2000      0.1733   1420.9978    703.0000     49.9083
            7          28      0.2000      0.1800   1421.8015    703.0000     49.9545
            7          29      0.2000      0.1867   1422.6105    703.0000     50.0012
            7          30      0.2000      0.1933   1423.4245    703.0000     50.0481
            7          31      0.2000      0.2000   1424.2431    703.0000     50.0955
            8           1      0.2333      0.0000   1402.6839    703.0000     48.8766
            8           2      0.2333      0.0067   1403.3562    703.0000     48.9137
            8           3      0.2333      0.0133   1404.0314    703.0000     48.9511
            8           4      0.2333      0.0200   1404.7095    703.0000     48.9887
            8           5      0.2333      0.0267   1405.3908    703.0000     49.0265
            8           6      0.2333      0.0333   1406.0755    703.0000     49.0645
            8           7      0.2333      0.0400   1406.7637    703.0000     49.1028
            8           8      0.2333      0.0467   1407.4557    703.0000     49.1414
            8           9      0.2333      0.0533   1408.1515    703.0000     49.1802
            8          10      0.2333      0.0600   1408.8514    703.0000     49.2194
            8          11      0.2333      0.0667   1409.5554    703.0000     49.2588
            8          12      0.2333      0.0733   1410.2637    703.0000     49.2985
            8          13      0.2333      0.0800   1410.9764    703.0000     49.3386
            8          14      0.2333      0.0867   1411.6936    703.0000     49.3790
            8          15      0.2333      0.0933   1412.4154    703.0000     49.4196
            8          16      0.2333      0.1000   1413.1418    703.0000     49.4606
            8          17      0.2333      0.1067   1413.8729    703.0000     49.5020
            8          18      0.2333      0.1133   1414.6087    703.0000     49.5437
            8          19      0.2333      0.1200   1415.3493    703.0000     49.5857
            8          20      0.2333      0.1267   1416.0945    703.0000     49.6280
            8          21      0.2333      0.1333   1416.8444    703.0000     49.6707
            8          22      0.2333      0.1400   1417.5989    703.0000     49.7137
            8          23      0.2333      0.1467   1418.3578    703.0000     49.7570
            8          24      0.2333      0.1533   1419.1212    703.0000     49.8007
            8          25      0.2333      0.1600   1419.8888    703.0000     49.8447
            8          26      0.2333      0.1667   1420.6606    703.0000     49.8889
            8          27      0.2333      0.1733   1421.4362    703.0000     49.9335
            8          28      0.2333      0.1800   1422.2155    703.0000     49.9784
            8          29      0.2333      0.1867   1422.9983    703.0000     50.0235
            8          30      0.2333      0.1933   1423.7842    703.0000     50.0689
            8          31      0.2333      0.2000   1424.5731    703.0000     50.1146
            9           1      0.2667      0.0000   1402.9472    703.0000     48.8911
            9           2      0.2667      0.0067   1403.6377    703.0000     48.9293
            9           3      0.2667      0.0133   1404.3300    703.0000     48.9676
            9           4      0.2667      0.0200   1405.0243    703.0000     49.0061
            9           5      0.2667      0.0267   1405.7208    703.0000     49.0448
            9           6      0.2667      0.0333   1406.4196    703.0000     49.0837
            9           7      0.2667      0.0400   1407.1208    703.0000     49.1227
            9           8      0.2667      0.0467   1407.8245    703.0000     49.1620
            9           9      0.2667      0.0533   1408.5308    703.0000     49.2015
            9          10      0.2667      0.0600   1409.2399    703.0000     49.2411
            9          11      0.2667      0.0667   1409.9518    703.0000     49.2810
            9          12      0.2667      0.0733   1410.6666    703.0000     49.3212
            9          13      0.2667      0.0800   1411.3844    703.0000     49.3615
            9          14      0.2667      0.0867   1412.1053    703.0000     49.4021
            9          15      0.2667      0.0933   1412.8292    703.0000     49.4430
            9          16      0.2667      0.1000   1413.5562    703.0000     49.4841
            9          17      0.2667      0.1067   1414.2863    703.0000     49.5254
            9          18      0.2667      0.1133   1415.0196    703.0000     49.5670
            9          19      0.2667      0.1200   1415.7560    703.0000     49.6088
            9          20      0.2667      0.1267   1416.4954    703.0000     49.6508
            9          21      0.2667      0.1333   1417.2380    703.0000     49.6931
            9          22      0.2667      0.1400   1417.9835    703.0000     49.7356
            9          23      0.2667      0.1467   1418.7320    703.0000     49.7784
            9          24      0.2667      0.1533   1419.4833    703.0000     49.8214
            9          25      0.2667      0.1600   1420.2373    703.0000     49.8647
            9          26      0.2667      0.1667   1420.9940    703.0000     49.9081
            9          27      0.2667      0.1733   1421.7531    703.0000     49.9518
            9          28      0.2667      0.1800   1422.5146    703.0000     49.9956
            9          29      0.2667      0.1867   1423.2782    703.0000     50.0397
            9          30      0.2667      0.1933   1424.0438    703.0000     50.0839
            9          31      0.2667      0.2000   1424.8112    703.0000     50.1284
           10           1      0.3000      0.0000   1403.1429    703.0000     48.9020
           10           2      0.3000      0.0067   1403.8468    703.0000     48.9409
           10           3      0.3000      0.0133   1404.5518    703.0000     48.9799
           10           4      0.3000      0.0200   1405.2581    703.0000     49.0191
           10           5      0.3000      0.0267   1405.9657    703.0000     49.0584
           10           6      0.3000      0.0333   1406.6747    703.0000     49.0979
           10           7      0.3000      0.0400   1407.3853    703.0000     49.1375
           10           8      0.3000      0.0467   1408.0975    703.0000     49.1772
           10           9      0.3000      0.0533   1408.8114    703.0000     49.2171
           10          10      0.3000      0.0600   1409.5270    703.0000     49.2572
           10          11      0.3000      0.0667   1410.2444    703.0000     49.2975
           10          12      0.3000      0.0733   1410.9637    703.0000     49.3379
           10          13      0.3000      0.0800   1411.6849    703.0000     49.3785
           10          14      0.3000      0.0867   1412.4080    703.0000     49.4192
           10          15      0.3000      0.0933   1413.1331    703.0000     49.4602
           10          16      0.3000      0.1000   1413.8602    703.0000     49.5013
           10          17      0.3000      0.1067   1414.5892    703.0000     49.5426
           10          18      0.3000      0.1133   1415.3202    703.0000     49.5840
           10          19      0.3000      0.1200   1416.0532    703.0000     49.6257
           10          20      0.3000      0.1267   1416.7881    703.0000     49.6675
           10          21      0.3000      0.1333   1417.5249    703.0000     49.7095
           10          22      0.3000      0.1400   1418.2636    703.0000     49.7516
           10          23      0.3000      0.1467   1419.0042    703.0000     49.7940
           10          24      0.3000      0.1533   1419.7464    703.0000     49.8365
           10          25      0.3000      0.1600   1420.4903    703.0000     49.8792
           10          26      0.3000      0.1667   1421.2359    703.0000     49.9220
           10          27      0.3000      0.1733   1421.9829    703.0000     49.9650
           10          28      0.3000      0.1800   1422.7313    703.0000     50.0081
           10          29      0.3000      0.1867   1423.4809    703.0000     50.0514
           10          30      0.3000      0.1933   1424.2317    703.0000     50.0948
           10          31      0.3000      0.2000   1424.9835    703.0000     50.1383
           11           1      0.3333      0.0000   1403.2866    703.0000     48.9099
           11           2      0.3333      0.0067   1404.0004    703.0000     48.9494
           11           3      0.3333      0.0133   1404.7147    703.0000     48.9890
           11           4      0.3333      0.0200   1405.4297    703.0000     49.0286
           11           5      0.3333      0.0267   1406.1454    703.0000     49.0684
           11           6      0.3333      0.0333   1406.8620    703.0000     49.1083
           11           7      0.3333      0.0400   1407.5794    703.0000     49.1483
           11           8      0.3333      0.0467   1408.2977    703.0000     49.1884
           11           9      0.3333      0.0533   1409.0169    703.0000     49.2287
           11          10      0.3333      0.0600   1409.7372    703.0000     49.2690
           11          11      0.3333      0.0667   1410.4585    703.0000     49.3095
           11          12      0.3333      0.0733   1411.1809    703.0000     49.3501
           11          13      0.3333      0.0800   1411.9044    703.0000     49.3908
           11          14      0.3333      0.0867   1412.6290    703.0000     49.4317
           11          15      0.3333      0.0933   1413.3547    703.0000     49.4727
           11          16      0.3333      0.1000   1414.0816    703.0000     49.5138
           11          17      0.3333      0.1067   1414.8096    703.0000     49.5550
           11          18      0.3333      0.1133   1415.5388    703.0000     49.5964
           11          19      0.3333      0.1200   1416.2691    703.0000     49.6379
           11          20      0.3333      0.1267   1417.0006    703.0000     49.6796
           11          21      0.3333      0.1333   1417.7331    703.0000     49.7214
           11          22      0.3333      0.1400   1418.4667    703.0000     49.7633
           11          23      0.3333      0.1467   1419.2013    703.0000     49.8053
           11          24      0.3333      0.1533   1419.9368    703.0000     49.8474
           11          25      0.3333      0.1600   1420.6733    703.0000     49.8897
           11          26      0.3333      0.1667   1421.4107    703.0000     49.9321
           11          27      0.3333      0.1733   1422.1489    703.0000     49.9745
           11          28      0.3333      0.1800   1422.8877    703.0000     50.0171
           11          29      0.3333      0.1867   1423.6273    703.0000     50.0599
           11          30      0.3333      0.1933   1424.3674    703.0000     50.1027
           11          31      0.3333      0.2000   1425.1079    703.0000     50.1456
           12           1      0.3667      0.0000   1403.3905    703.0000     48.9156
           12           2      0.3667      0.0067   1404.1113    703.0000     48.9555
           12           3      0.3667      0.0133   1404.8324    703.0000     48.9955
           12           4      0.3667      0.0200   1405.5536    703.0000     49.0355
           12           5      0.3667      0.0267   1406.2752    703.0000     49.0756
           12           6      0.3667      0.0333   1406.9971    703.0000     49.1158
           12           7      0.3667      0.0400   1407.7193    703.0000     49.1561
           12           8      0.3667      0.0467   1408.4420    703.0000     49.1965
           12           9      0.3667      0.0533   1409.1650    703.0000     49.2369
           12          10      0.3667      0.0600   1409.8886    703.0000     49.2775
           12          11      0.3667      0.0667   1410.6126    703.0000     49.3181
           12          12      0.3667      0.0733   1411.3371    703.0000     49.3589
           12          13      0.3667      0.0800   1412.0622    703.0000     49.3997
           12          14      0.3667      0.0867   1412.7878    703.0000     49.4406
           12          15      0.3667      0.0933   1413.5139    703.0000     49.4817
           12          16      0.3667      0.1000   1414.2406    703.0000     49.5228
           12          17      0.3667      0.1067   1414.9678    703.0000     49.5640
           12          18      0.3667      0.1133   1415.6956    703.0000     49.6053
           12          19      0.3667      0.1200   1416.4239    703.0000     49.6467
           12          20      0.3667      0.1267   1417.1528    703.0000     49.6883
           12          21      0.3667      0.1333   1417.8821    703.0000     49.7299
           12          22      0.3667      0.1400   1418.6120    703.0000     49.7716
           12          23      0.3667      0.1467   1419.3423    703.0000     49.8133
           12          24      0.3667      0.1533   1420.0730    703.0000     49.8552
           12          25      0.3667      0.1600   1420.8041    703.0000     49.8972
           12          26      0.3667      0.1667   1421.5356    703.0000     49.9392
           12          27      0.3667      0.1733   1422.2674    703.0000     49.9814
           12          28      0.3667      0.1800   1422.9995    703.0000     50.0236
           12          29      0.3667      0.1867   1423.7317    703.0000     50.0659
           12          30      0.3667      0.1933   1424.4642    703.0000     50.1083
           12          31      0.3667      0.2000   1425.1967    703.0000     50.1507
           13           1      0.4000      0.0000   1403.4632    703.0000     48.9197
           13           2      0.4000      0.0067   1404.1890    703.0000     48.9598
           13           3      0.4000      0.0133   1404.9148    703.0000     49.0000
           13           4      0.4000      0.0200   1405.6404    703.0000     49.0403
           13           5      0.4000      0.0267   1406.3660    703.0000     49.0807
           13           6      0.4000      0.0333   1407.0916    703.0000     49.1211
           13           7      0.4000      0.0400   1407.8173    703.0000     49.1616
           13           8      0.4000      0.0467   1408.5429    703.0000     49.2021
           13           9      0.4000      0.0533   1409.2687    703.0000     49.2427
           13          10      0.4000      0.0600   1409.9945    703.0000     49.2834
           13          11      0.4000      0.0667   1410.7203    703.0000     49.3242
           13          12      0.4000      0.0733   1411.4463    703.0000     49.3650
           13          13      0.4000      0.0800   1412.1724    703.0000     49.4059
           13          14      0.4000      0.0867   1412.8987    703.0000     49.4469
           13          15      0.4000      0.0933   1413.6250    703.0000     49.4880
           13          16      0.4000      0.1000   1414.3515    703.0000     49.5291
           13          17      0.4000      0.1067   1415.0782    703.0000     49.5703
           13          18      0.4000      0.1133   1415.8049    703.0000     49.6115
           13          19      0.4000      0.1200   1416.5318    703.0000     49.6529
           13          20      0.4000      0.1267   1417.2588    703.0000     49.6943
           13          21      0.4000      0.1333   1417.9859    703.0000     49.7358
           13          22      0.4000      0.1400   1418.7131    703.0000     49.7773
           13          23      0.4000      0.1467   1419.4404    703.0000     49.8190
           13          24      0.4000      0.1533   1420.1677    703.0000     49.8607
           13          25      0.4000      0.1600   1420.8951    703.0000     49.9024
           13          26      0.4000      0.1667   1421.6225    703.0000     49.9442
           13          27      0.4000      0.1733   1422.3498    703.0000     49.9861
           13          28      0.4000      0.1800   1423.0771    703.0000     50.0281
           13          29      0.4000      0.1867   1423.8043    703.0000     50.0701
           13          30      0.4000      0.1933   1424.5315    703.0000     50.1122
           13          31      0.4000      0.2000   1425.2584    703.0000     50.1543
           14           1      0.4333      0.0000   1403.5111    703.0000     48.9223
           14           2      0.4333      0.0067   1404.2402    703.0000     48.9627
           14           3      0.4333      0.0133   1404.9690    703.0000     49.0031
           14           4      0.4333      0.0200   1405.6975    703.0000     49.0435
           14           5      0.4333      0.0267   1406.4258    703.0000     49.0840
           14           6      0.4333      0.0333   1407.1539    703.0000     49.1246
           14           7      0.4333      0.0400   1407.8817    703.0000     49.1652
           14           8      0.4333      0.0467   1408.6093    703.0000     49.2058
           14           9      0.4333      0.0533   1409.3368    703.0000     49.2466
           14          10      0.4333      0.0600   1410.0641    703.0000     49.2873
           14          11      0.4333      0.0667   1410.7911    703.0000     49.3282
           14          12      0.4333      0.0733   1411.5181    703.0000     49.3691
           14          13      0.4333      0.0800   1412.2449    703.0000     49.4100
           14          14      0.4333      0.0867   1412.9715    703.0000     49.4510
           14          15      0.4333      0.0933   1413.6980    703.0000     49.4921
           14          16      0.4333      0.1000   1414.4244    703.0000     49.5332
           14          17      0.4333      0.1067   1415.1506    703.0000     49.5744
           14          18      0.4333      0.1133   1415.8766    703.0000     49.6156
           14          19      0.4333      0.1200   1416.6026    703.0000     49.6569
           14          20      0.4333      0.1267   1417.3283    703.0000     49.6983
           14          21      0.4333      0.1333   1418.0540    703.0000     49.7397
           14          22      0.4333      0.1400   1418.7794    703.0000     49.7811
           14          23      0.4333      0.1467   1419.5047    703.0000     49.8226
           14          24      0.4333      0.1533   1420.2298    703.0000     49.8642
           14          25      0.4333      0.1600   1420.9547    703.0000     49.9058
           14          26      0.4333      0.1667   1421.6794    703.0000     49.9475
           14          27      0.4333      0.1733   1422.4038    703.0000     49.9892
           14          28      0.4333      0.1800   1423.1280    703.0000     50.0310
           14          29      0.4333      0.1867   1423.8519    703.0000     50.0728
           14          30      0.4333      0.1933   1424.5755    703.0000     50.1147
           14          31      0.4333      0.2000   1425.2988    703.0000     50.1566
           15           1      0.4667      0.0000   1403.5382    703.0000     48.9238
           15           2      0.4667      0.0067   1404.2692    703.0000     48.9643
           15           3      0.4667      0.0133   1404.9997    703.0000     49.0048
           15           4      0.4667      0.0200   1405.7299    703.0000     49.0453
           15           5      0.4667      0.0267   1406.4597    703.0000     49.0859
           15           6      0.4667      0.0333   1407.1892    703.0000     49.1265
           15           7      0.4667      0.0400   1407.9182    703.0000     49.1672
           15           8      0.4667      0.0467   1408.6470    703.0000     49.2079
           15           9      0.4667      0.0533   1409.3754    703.0000     49.2487
           15          10      0.4667      0.0600   1410.1035    703.0000     49.2896
           15          11      0.4667      0.0667   1410.8313    703.0000     49.3304
           15          12      0.4667      0.0733   1411.5587    703.0000     49.3714
           15          13      0.4667      0.0800   1412.2859    703.0000     49.4123
           15          14      0.4667      0.0867   1413.0128    703.0000     49.4534
           15          15      0.4667      0.0933   1413.7393    703.0000     49.4944
           15          16      0.4667      0.1000   1414.4656    703.0000     49.5355
           15          17      0.4667      0.1067   1415.1916    703.0000     49.5767
           15          18      0.4667      0.1133   1415.9173    703.0000     49.6179
           15          19      0.4667      0.1200   1416.6426    703.0000     49.6592
           15          20      0.4667      0.1267   1417.3677    703.0000     49.7005
           15          21      0.4667      0.1333   1418.0925    703.0000     49.7419
           15          22      0.4667      0.1400   1418.8169    703.0000     49.7833
           15          23      0.4667      0.1467   1419.5411    703.0000     49.8247
           15          24      0.4667      0.1533   1420.2649    703.0000     49.8662
           15          25      0.4667      0.1600   1420.9884    703.0000     49.9078
           15          26      0.4667      0.1667   1421.7115    703.0000     49.9494
           15          27      0.4667      0.1733   1422.4343    703.0000     49.9910
           15          28      0.4667      0.1800   1423.1567    703.0000     50.0327
           15          29      0.4667      0.1867   1423.8788    703.0000     50.0744
           15          30      0.4667      0.1933   1424.6004    703.0000     50.1162
           15          31      0.4667      0.2000   1425.3217    703.0000     50.1580
           16           1      0.5000      0.0000   1403.5470    703.0000     48.9243
           16           2      0.5000      0.0067   1404.2786    703.0000     48.9648
           16           3      0.5000      0.0133   1405.0097    703.0000     49.0053
           16           4      0.5000      0.0200   1405.7404    703.0000     49.0459
           16           5      0.5000      0.0267   1406.4707    703.0000     49.0865
           16           6      0.5000      0.0333   1407.2006    703.0000     49.1272
           16           7      0.5000      0.0400   1407.9301    703.0000     49.1679
           16           8      0.5000      0.0467   1408.6592    703.0000     49.2086
           16           9      0.5000      0.0533   1409.3879    703.0000     49.2494
           16          10      0.5000      0.0600   1410.1163    703.0000     49.2903
           16          11      0.5000      0.0667   1410.8443    703.0000     49.3312
           16          12      0.5000      0.0733   1411.5719    703.0000     49.3721
           16          13      0.5000      0.0800   1412.2992    703.0000     49.4131
           16          14      0.5000      0.0867   1413.0261    703.0000     49.4541
           16          15      0.5000      0.0933   1413.7527    703.0000     49.4952
           16          16      0.5000      0.1000   1414.4789    703.0000     49.5363
           16          17      0.5000      0.1067   1415.2048    703.0000     49.5775
           16          18      0.5000      0.1133   1415.9304    703.0000     49.6187
           16          19      0.5000      0.1200   1416.6556    703.0000     49.6599
           16          20      0.5000      0.1267   1417.3804    703.0000     49.7012
           16          21      0.5000      0.1333   1418.1049    703.0000     49.7426
           16          22      0.5000      0.1400   1418.8291    703.0000     49.7840
           16          23      0.5000      0.1467   1419.5528    703.0000     49.8254
           16          24      0.5000      0.1533   1420.2762    703.0000     49.8669
           16          25      0.5000      0.1600   1420.9993    703.0000     49.9084
           16          26      0.5000      0.1667   1421.7219    703.0000     49.9500
           16          27      0.5000      0.1733   1422.4442    703.0000     49.9916
           16          28      0.5000      0.1800   1423.1660    703.0000     50.0332
           16          29      0.5000      0.1867   1423.8875    703.0000     50.0749
           16          30      0.5000      0.1933   1424.6085    703.0000     50.1166
           16          31      0.5000      0.2000   1425.3291    703.0000     50.1584
           17           1      0.5333      0.0000   1403.5382    703.0000     48.9238
           17           2      0.5333      0.0067   1404.2691    703.0000     48.9643
           17           3      0.5333      0.0133   1404.9997    703.0000     49.0048
           17           4      0.5333      0.0200   1405.7299    703.0000     49.0453
           17           5      0.5333      0.0267   1406.4597    703.0000     49.0859
           17           6      0.5333      0.0333   1407.1891    703.0000     49.1265
           17           7      0.5333      0.0400   1407.9182    703.0000     49.1672
           17           8      0.5333      0.0467   1408.6469    703.0000     49.2079
           17           9      0.5333      0.0533   1409.3754    703.0000     49.2487
           17          10      0.5333      0.0600   1410.1034    703.0000     49.2896
           17          11      0.5333      0.0667   1410.8312    703.0000     49.3304
           17          12      0.5333      0.0733   1411.5587    703.0000     49.3714
           17          13      0.5333      0.0800   1412.2859    703.0000     49.4123
           17          14      0.5333      0.0867   1413.0127    703.0000     49.4534
           17          15      0.5333      0.0933   1413.7393    703.0000     49.4944
           17          16      0.5333      0.1000   1414.4655    703.0000     49.5355
           17          17      0.5333      0.1067   1415.1915    703.0000     49.5767
           17          18      0.5333      0.1133   1415.9172    703.0000     49.6179
           17          19      0.5333      0.1200   1416.6426    703.0000     49.6592
           17          20      0.5333      0.1267   1417.3677    703.0000     49.7005
           17          21      0.5333      0.1333   1418.0924    703.0000     49.7419
           17          22      0.5333      0.1400   1418.8169    703.0000     49.7833
           17          23      0.5333      0.1467   1419.5410    703.0000     49.8247
           17          24      0.5333      0.1533   1420.2649    703.0000     49.8662
           17          25      0.5333      0.1600   1420.9883    703.0000     49.9078
           17          26      0.5333      0.1667   1421.7115    703.0000     49.9494
           17          27      0.5333      0.1733   1422.4343    703.0000     49.9910
           17          28      0.5333      0.1800   1423.1567    703.0000     50.0327
           17          29      0.5333      0.1867   1423.8788    703.0000     50.0744
           17          30      0.5333      0.1933   1424.6004    703.0000     50.1162
           17          31      0.5333      0.2000   1425.3216    703.0000     50.1579
           18           1      0.5667      0.0000   1403.5110    703.0000     48.9223
           18           2      0.5667      0.0067   1404.2401    703.0000     48.9627
           18           3      0.5667      0.0133   1404.9689    703.0000     49.0030
           18           4      0.5667      0.0200   1405.6974    703.0000     49.0435
           18           5      0.5667      0.0267   1406.4257    703.0000     49.0840
           18           6      0.5667      0.0333   1407.1538    703.0000     49.1246
           18           7      0.5667      0.0400   1407.8816    703.0000     49.1652
           18           8      0.5667      0.0467   1408.6093    703.0000     49.2058
           18           9      0.5667      0.0533   1409.3367    703.0000     49.2466
           18          10      0.5667      0.0600   1410.0640    703.0000     49.2873
           18          11      0.5667      0.0667   1410.7911    703.0000     49.3282
           18          12      0.5667      0.0733   1411.5180    703.0000     49.3691
           18          13      0.5667      0.0800   1412.2448    703.0000     49.4100
           18          14      0.5667      0.0867   1412.9714    703.0000     49.4510
           18          15      0.5667      0.0933   1413.6979    703.0000     49.4921
           18          16      0.5667      0.1000   1414.4243    703.0000     49.5332
           18          17      0.5667      0.1067   1415.1505    703.0000     49.5744
           18          18      0.5667      0.1133   1415.8765    703.0000     49.6156
           18          19      0.5667      0.1200   1416.6025    703.0000     49.6569
           18          20      0.5667      0.1267   1417.3282    703.0000     49.6983
           18          21      0.5667      0.1333   1418.0539    703.0000     49.7397
           18          22      0.5667      0.1400   1418.7793    703.0000     49.7811
           18          23      0.5667      0.1467   1419.5046    703.0000     49.8226
           18          24      0.5667      0.1533   1420.2297    703.0000     49.8642
           18          25      0.5667      0.1600   1420.9546    703.0000     49.9058
           18          26      0.5667      0.1667   1421.6793    703.0000     49.9475
           18          27      0.5667      0.1733   1422.4037    703.0000     49.9892
           18          28      0.5667      0.1800   1423.1279    703.0000     50.0310
           18          29      0.5667      0.1867   1423.8518    703.0000     50.0728
           18          30      0.5667      0.1933   1424.5755    703.0000     50.1147
           18          31      0.5667      0.2000   1425.2988    703.0000     50.1566
           19           1      0.6000      0.0000   1403.4631    703.0000     48.9197
           19           2      0.6000      0.0067   1404.1889    703.0000     48.9598
           19           3      0.6000      0.0133   1404.9147    703.0000     49.0000
           19           4      0.6000      0.0200   1405.6403    703.0000     49.0403
           19           5      0.6000      0.0267   1406.3659    703.0000     49.0807
           19           6      0.6000      0.0333   1407.0915    703.0000     49.1211
           19           7      0.6000      0.0400   1407.8171    703.0000     49.1616
           19           8      0.6000      0.0467   1408.5428    703.0000     49.2021
           19           9      0.6000      0.0533   1409.2685    703.0000     49.2427
           19          10      0.6000      0.0600   1409.9943    703.0000     49.2834
           19          11      0.6000      0.0667   1410.7202    703.0000     49.3242
           19          12      0.6000      0.0733   1411.4462    703.0000     49.3650
           19          13      0.6000      0.0800   1412.1723    703.0000     49.4059
           19          14      0.6000      0.0867   1412.8985    703.0000     49.4469
           19          15      0.6000      0.0933   1413.6249    703.0000     49.4880
           19          16      0.6000      0.1000   1414.3514    703.0000     49.5291
           19          17      0.6000      0.1067   1415.0780    703.0000     49.5703
           19          18      0.6000      0.1133   1415.8048    703.0000     49.6115
           19          19      0.6000      0.1200   1416.5317    703.0000     49.6529
           19          20      0.6000      0.1267   1417.2587    703.0000     49.6943
           19          21      0.6000      0.1333   1417.9858    703.0000     49.7358
           19          22      0.6000      0.1400   1418.7130    703.0000     49.7773
           19          23      0.6000      0.1467   1419.4403    703.0000     49.8190
           19          24      0.6000      0.1533   1420.1676    703.0000     49.8606
           19          25      0.6000      0.1600   1420.8950    703.0000     49.9024
           19          26      0.6000      0.1667   1421.6223    703.0000     49.9442
           19          27      0.6000      0.1733   1422.3497    703.0000     49.9861
           19          28      0.6000      0.1800   1423.0770    703.0000     50.0281
           19          29      0.6000      0.1867   1423.8043    703.0000     50.0701
           19          30      0.6000      0.1933   1424.5314    703.0000     50.1122
           19          31      0.6000      0.2000   1425.2583    703.0000     50.1543
           20           1      0.6333      0.0000   1403.3904    703.0000     48.9156
           20           2      0.6333      0.0067   1404.1112    703.0000     48.9555
           20           3      0.6333      0.0133   1404.8322    703.0000     48.9955
           20           4      0.6333      0.0200   1405.5535    703.0000     49.0355
           20           5      0.6333      0.0267   1406.2751    703.0000     49.0756
           20           6      0.6333      0.0333   1406.9969    703.0000     49.1158
           20           7      0.6333      0.0400   1407.7192    703.0000     49.1561
           20           8      0.6333      0.0467   1408.4418    703.0000     49.1965
           20           9      0.6333      0.0533   1409.1649    703.0000     49.2369
           20          10      0.6333      0.0600   1409.8884    703.0000     49.2775
           20          11      0.6333      0.0667   1410.6124    703.0000     49.3181
           20          12      0.6333      0.0733   1411.3370    703.0000     49.3589
           20          13      0.6333      0.0800   1412.0620    703.0000     49.3997
           20          14      0.6333      0.0867   1412.7876    703.0000     49.4406
           20          15      0.6333      0.0933   1413.5137    703.0000     49.4817
           20          16      0.6333      0.1000   1414.2404    703.0000     49.5228
           20          17      0.6333      0.1067   1414.9677    703.0000     49.5640
           20          18      0.6333      0.1133   1415.6954    703.0000     49.6053
           20          19      0.6333      0.1200   1416.4238    703.0000     49.6467
           20          20      0.6333      0.1267   1417.1526    703.0000     49.6882
           20          21      0.6333      0.1333   1417.8820    703.0000     49.7299
           20          22      0.6333      0.1400   1418.6118    703.0000     49.7715
           20          23      0.6333      0.1467   1419.3421    703.0000     49.8133
           20          24      0.6333      0.1533   1420.0728    703.0000     49.8552
           20          25      0.6333      0.1600   1420.8040    703.0000     49.8972
           20          26      0.6333      0.1667   1421.5355    703.0000     49.9392
           20          27      0.6333      0.1733   1422.2673    703.0000     49.9814
           20          28      0.6333      0.1800   1422.9993    703.0000     50.0236
           20          29      0.6333      0.1867   1423.7316    703.0000     50.0659
           20          30      0.6333      0.1933   1424.4641    703.0000     50.1083
           20          31      0.6333      0.2000   1425.1966    703.0000     50.1507
           21           1      0.6667      0.0000   1403.2865    703.0000     48.9099
           21           2      0.6667      0.0067   1404.0003    703.0000     48.9494
           21           3      0.6667      0.0133   1404.7146    703.0000     48.9889
           21           4      0.6667      0.0200   1405.4296    703.0000     49.0286
           21           5      0.6667      0.0267   1406.1453    703.0000     49.0684
           21           6      0.6667      0.0333   1406.8618    703.0000     49.1083
           21           7      0.6667      0.0400   1407.5792    703.0000     49.1483
           21           8      0.6667      0.0467   1408.2975    703.0000     49.1884
           21           9      0.6667      0.0533   1409.0168    703.0000     49.2286
           21          10      0.6667      0.0600   1409.7370    703.0000     49.2690
           21          11      0.6667      0.0667   1410.4583    703.0000     49.3095
           21          12      0.6667      0.0733   1411.1807    703.0000     49.3501
           21          13      0.6667      0.0800   1411.9042    703.0000     49.3908
           21          14      0.6667      0.0867   1412.6288    703.0000     49.4317
           21          15      0.6667      0.0933   1413.3545    703.0000     49.4727
           21          16      0.6667      0.1000   1414.0814    703.0000     49.5138
           21          17      0.6667      0.1067   1414.8095    703.0000     49.5550
           21          18      0.6667      0.1133   1415.5386    703.0000     49.5964
           21          19      0.6667      0.1200   1416.2690    703.0000     49.6379
           21          20      0.6667      0.1267   1417.0004    703.0000     49.6796
           21          21      0.6667      0.1333   1417.7329    703.0000     49.7213
           21          22      0.6667      0.1400   1418.4665    703.0000     49.7632
           21          23      0.6667      0.1467   1419.2011    703.0000     49.8053
           21          24      0.6667      0.1533   1419.9367    703.0000     49.8474
           21          25      0.6667      0.1600   1420.6732    703.0000     49.8897
           21          26      0.6667      0.1667   1421.4106    703.0000     49.9320
           21          27      0.6667      0.1733   1422.1487    703.0000     49.9745
           21          28      0.6667      0.1800   1422.8876    703.0000     50.0171
           21          29      0.6667      0.1867   1423.6272    703.0000     50.0598
           21          30      0.6667      0.1933   1424.3673    703.0000     50.1027
           21          31      0.6667      0.2000   1425.1078    703.0000     50.1456
           22           1      0.7000      0.0000   1403.1428    703.0000     48.9019
           22           2      0.7000      0.0067   1403.8466    703.0000     48.9409
           22           3      0.7000      0.0133   1404.5517    703.0000     48.9799
           22           4      0.7000      0.0200   1405.2579    703.0000     49.0191
           22           5      0.7000      0.0267   1405.9655    703.0000     49.0584
           22           6      0.7000      0.0333   1406.6746    703.0000     49.0979
           22           7      0.7000      0.0400   1407.3852    703.0000     49.1375
           22           8      0.7000      0.0467   1408.0974    703.0000     49.1772
           22           9      0.7000      0.0533   1408.8113    703.0000     49.2171
           22          10      0.7000      0.0600   1409.5269    703.0000     49.2572
           22          11      0.7000      0.0667   1410.2443    703.0000     49.2975
           22          12      0.7000      0.0733   1410.9636    703.0000     49.3379
           22          13      0.7000      0.0800   1411.6848    703.0000     49.3785
           22          14      0.7000      0.0867   1412.4079    703.0000     49.4192
           22          15      0.7000      0.0933   1413.1330    703.0000     49.4601
           22          16      0.7000      0.1000   1413.8600    703.0000     49.5013
           22          17      0.7000      0.1067   1414.5890    703.0000     49.5425
           22          18      0.7000      0.1133   1415.3201    703.0000     49.5840
           22          19      0.7000      0.1200   1416.0530    703.0000     49.6257
           22          20      0.7000      0.1267   1416.7880    703.0000     49.6675
           22          21      0.7000      0.1333   1417.5248    703.0000     49.7095
           22          22      0.7000      0.1400   1418.2635    703.0000     49.7516
           22          23      0.7000      0.1467   1419.0040    703.0000     49.7940
           22          24      0.7000      0.1533   1419.7463    703.0000     49.8365
           22          25      0.7000      0.1600   1420.4902    703.0000     49.8792
           22          26      0.7000      0.1667   1421.2357    703.0000     49.9220
           22          27      0.7000      0.1733   1421.9828    703.0000     49.9650
           22          28      0.7000      0.1800   1422.7311    703.0000     50.0081
           22          29      0.7000      0.1867   1423.4808    703.0000     50.0514
           22          30      0.7000      0.1933   1424.2316    703.0000     50.0948
           22          31      0.7000      0.2000   1424.9834    703.0000     50.1383
           23           1      0.7333      0.0000   1402.9472    703.0000     48.8911
           23           2      0.7333      0.0067   1403.6376    703.0000     48.9293
           23           3      0.7333      0.0133   1404.3299    703.0000     48.9676
           23           4      0.7333      0.0200   1405.0242    703.0000     49.0061
           23           5      0.7333      0.0267   1405.7207    703.0000     49.0448
           23           6      0.7333      0.0333   1406.4195    703.0000     49.0837
           23           7      0.7333      0.0400   1407.1207    703.0000     49.1227
           23           8      0.7333      0.0467   1407.8244    703.0000     49.1620
           23           9      0.7333      0.0533   1408.5307    703.0000     49.2014
           23          10      0.7333      0.0600   1409.2398    703.0000     49.2411
           23          11      0.7333      0.0667   1409.9517    703.0000     49.2810
           23          12      0.7333      0.0733   1410.6665    703.0000     49.3212
           23          13      0.7333      0.0800   1411.3843    703.0000     49.3615
           23          14      0.7333      0.0867   1412.1052    703.0000     49.4021
           23          15      0.7333      0.0933   1412.8291    703.0000     49.4430
           23          16      0.7333      0.1000   1413.5561    703.0000     49.4841
           23          17      0.7333      0.1067   1414.2862    703.0000     49.5254
           23          18      0.7333      0.1133   1415.0195    703.0000     49.5669
           23          19      0.7333      0.1200   1415.7559    703.0000     49.6088
           23          20      0.7333      0.1267   1416.4953    703.0000     49.6508
           23          21      0.7333      0.1333   1417.2379    703.0000     49.6931
           23          22      0.7333      0.1400   1417.9834    703.0000     49.7356
           23          23      0.7333      0.1467   1418.7319    703.0000     49.7784
           23          24      0.7333      0.1533   1419.4832    703.0000     49.8214
           23          25      0.7333      0.1600   1420.2373    703.0000     49.8646
           23          26      0.7333      0.1667   1420.9939    703.0000     49.9081
           23          27      0.7333      0.1733   1421.7531    703.0000     49.9518
           23          28      0.7333      0.1800   1422.5145    703.0000     49.9956
           23          29      0.7333      0.1867   1423.2781    703.0000     50.0397
           23          30      0.7333      0.1933   1424.0438    703.0000     50.0839
           23          31      0.7333      0.2000   1424.8111    703.0000     50.1284
           24           1      0.7667      0.0000   1402.6839    703.0000     48.8766
           24           2      0.7667      0.0067   1403.3563    703.0000     48.9137
           24           3      0.7667      0.0133   1404.0314    703.0000     48.9511
           24           4      0.7667      0.0200   1404.7095    703.0000     48.9887
           24           5      0.7667      0.0267   1405.3908    703.0000     49.0265
           24           6      0.7667      0.0333   1406.0755    703.0000     49.0645
           24           7      0.7667      0.0400   1406.7637    703.0000     49.1028
           24           8      0.7667      0.0467   1407.4557    703.0000     49.1414
           24           9      0.7667      0.0533   1408.1515    703.0000     49.1802
           24          10      0.7667      0.0600   1408.8514    703.0000     49.2194
           24          11      0.7667      0.0667   1409.5554    703.0000     49.2588
           24          12      0.7667      0.0733   1410.2637    703.0000     49.2985
           24          13      0.7667      0.0800   1410.9764    703.0000     49.3386
           24          14      0.7667      0.0867   1411.6936    703.0000     49.3790
           24          15      0.7667      0.0933   1412.4154    703.0000     49.4196
           24          16      0.7667      0.1000   1413.1418    703.0000     49.4606
           24          17      0.7667      0.1067   1413.8729    703.0000     49.5020
           24          18      0.7667      0.1133   1414.6088    703.0000     49.5437
           24          19      0.7667      0.1200   1415.3493    703.0000     49.5857
           24          20      0.7667      0.1267   1416.0945    703.0000     49.6280
           24          21      0.7667      0.1333   1416.8444    703.0000     49.6707
           24          22      0.7667      0.1400   1417.5989    703.0000     49.7137
           24          23      0.7667      0.1467   1418.3578    703.0000     49.7570
           24          24      0.7667      0.1533   1419.1212    703.0000     49.8007
           24          25      0.7667      0.1600   1419.8888    703.0000     49.8447
           24          26      0.7667      0.1667   1420.6606    703.0000     49.8889
           24          27      0.7667      0.1733   1421.4362    703.0000     49.9335
           24          28      0.7667      0.1800   1422.2155    703.0000     49.9784
           24          29      0.7667      0.1867   1422.9983    703.0000     50.0235
           24          30      0.7667      0.1933   1423.7842    703.0000     50.0689
           24          31      0.7667      0.2000   1424.5731    703.0000     50.1146
           25           1      0.8000      0.0000   1402.3329    703.0000     48.8572
           25           2      0.8000      0.0067   1402.9811    703.0000     48.8930
           25           3      0.8000      0.0133   1403.6332    703.0000     48.9291
           25           4      0.8000      0.0200   1404.2895    703.0000     48.9654
           25           5      0.8000      0.0267   1404.9502    703.0000     49.0020
           25           6      0.8000      0.0333   1405.6156    703.0000     49.0390
           25           7      0.8000      0.0400   1406.2860    703.0000     49.0762
           25           8      0.8000      0.0467   1406.9616    703.0000     49.1138
           25           9      0.8000      0.0533   1407.6427    703.0000     49.1518
           25          10      0.8000      0.0600   1408.3294    703.0000     49.1902
           25          11      0.8000      0.0667   1409.0219    703.0000     49.2289
           25          12      0.8000      0.0733   1409.7206    703.0000     49.2681
           25          13      0.8000      0.0800   1410.4255    703.0000     49.3076
           25          14      0.8000      0.0867   1411.1368    703.0000     49.3476
           25          15      0.8000      0.0933   1411.8547    703.0000     49.3880
           25          16      0.8000      0.1000   1412.5793    703.0000     49.4289
           25          17      0.8000      0.1067   1413.3107    703.0000     49.4702
           25          18      0.8000      0.1133   1414.0489    703.0000     49.5119
           25          19      0.8000      0.1200   1414.7940    703.0000     49.5542
           25          20      0.8000      0.1267   1415.5460    703.0000     49.5968
           25          21      0.8000      0.1333   1416.3050    703.0000     49.6400
           25          22      0.8000      0.1400   1417.0708    703.0000     49.6836
           25          23      0.8000      0.1467   1417.8433    703.0000     49.7276
           25          24      0.8000      0.1533   1418.6225    703.0000     49.7722
           25          25      0.8000      0.1600   1419.4082    703.0000     49.8171
           25          26      0.8000      0.1667   1420.2001    703.0000     49.8625
           25          27      0.8000      0.1733   1420.9980    703.0000     49.9083
           25          28      0.8000      0.1800   1421.8016    703.0000     49.9546
           25          29      0.8000      0.1867   1422.6106    703.0000     50.0012
           25          30      0.8000      0.1933   1423.4246    703.0000     50.0481
           25          31      0.8000      0.2000   1424.2431    703.0000     50.0955
           26           1      0.8333      0.0000   1401.8695    703.0000     48.8317
           26           2      0.8333      0.0067   1402.4857    703.0000     48.8657
           26           3      0.8333      0.0133   1403.1071    703.0000     48.9000
           26           4      0.8333      0.0200   1403.7341    703.0000     48.9346
           26           5      0.8333      0.0267   1404.3670    703.0000     48.9697
           26           6      0.8333      0.0333   1405.0061    703.0000     49.0051
           26           7      0.8333      0.0400   1405.6519    703.0000     49.0410
           26           8      0.8333      0.0467   1406.3047    703.0000     49.0773
           26           9      0.8333      0.0533   1406.9648    703.0000     49.1140
           26          10      0.8333      0.0600   1407.6325    703.0000     49.1513
           26          11      0.8333      0.0667   1408.3082    703.0000     49.1890
           26          12      0.8333      0.0733   1408.9922    703.0000     49.2273
           26          13      0.8333      0.0800   1409.6848    703.0000     49.2661
           26          14      0.8333      0.0867   1410.3863    703.0000     49.3054
           26          15      0.8333      0.0933   1411.0969    703.0000     49.3454
           26          16      0.8333      0.1000   1411.8169    703.0000     49.3859
           26          17      0.8333      0.1067   1412.5465    703.0000     49.4270
           26          18      0.8333      0.1133   1413.2858    703.0000     49.4688
           26          19      0.8333      0.1200   1414.0351    703.0000     49.5112
           26          20      0.8333      0.1267   1414.7944    703.0000     49.5542
           26          21      0.8333      0.1333   1415.5637    703.0000     49.5978
           26          22      0.8333      0.1400   1416.3432    703.0000     49.6422
           26          23      0.8333      0.1467   1417.1326    703.0000     49.6871
           26          24      0.8333      0.1533   1417.9320    703.0000     49.7327
           26          25      0.8333      0.1600   1418.7411    703.0000     49.7789
           26          26      0.8333      0.1667   1419.5598    703.0000     49.8258
           26          27      0.8333      0.1733   1420.3876    703.0000     49.8733
           26          28      0.8333      0.1800   1421.2242    703.0000     49.9213
           26          29      0.8333      0.1867   1422.0692    703.0000     49.9700
           26          30      0.8333      0.1933   1422.9220    703.0000     50.0191
           26          31      0.8333      0.2000   1423.7820    703.0000     50.0688
           27           1      0.8667      0.0000   1401.2653    703.0000     48.7984
           27           2      0.8667      0.0067   1401.8396    703.0000     48.8301
           27           3      0.8667      0.0133   1402.4205    703.0000     48.8621
           27           4      0.8667      0.0200   1403.0084    703.0000     48.8945
           27           5      0.8667      0.0267   1403.6038    703.0000     48.9274
           27           6      0.8667      0.0333   1404.2072    703.0000     48.9608
           27           7      0.8667      0.0400   1404.8190    703.0000     48.9947
           27           8      0.8667      0.0467   1405.4397    703.0000     49.0292
           27           9      0.8667      0.0533   1406.0698    703.0000     49.0642
           27          10      0.8667      0.0600   1406.7098    703.0000     49.0998
           27          11      0.8667      0.0667   1407.3603    703.0000     49.1361
           27          12      0.8667      0.0733   1408.0216    703.0000     49.1730
           27          13      0.8667      0.0800   1408.6943    703.0000     49.2106
           27          14      0.8667      0.0867   1409.3789    703.0000     49.2489
           27          15      0.8667      0.0933   1410.0759    703.0000     49.2880
           27          16      0.8667      0.1000   1410.7856    703.0000     49.3279
           27          17      0.8667      0.1067   1411.5086    703.0000     49.3685
           27          18      0.8667      0.1133   1412.2452    703.0000     49.4100
           27          19      0.8667      0.1200   1412.9958    703.0000     49.4524
           27          20      0.8667      0.1267   1413.7607    703.0000     49.4956
           27          21      0.8667      0.1333   1414.5402    703.0000     49.5398
           27          22      0.8667      0.1400   1415.3344    703.0000     49.5848
           27          23      0.8667      0.1467   1416.1434    703.0000     49.6308
           27          24      0.8667      0.1533   1416.9673    703.0000     49.6777
           27          25      0.8667      0.1600   1417.8060    703.0000     49.7255
           27          26      0.8667      0.1667   1418.6593    703.0000     49.7743
           27          27      0.8667      0.1733   1419.5268    703.0000     49.8239
           27          28      0.8667      0.1800   1420.4081    703.0000     49.8745
           27          29      0.8667      0.1867   1421.3026    703.0000     49.9258
           27          30      0.8667      0.1933   1422.2095    703.0000     49.9780
           27          31      0.8667      0.2000   1423.1280    703.0000     50.0310
           28           1      0.9000      0.0000   1400.4906    703.0000     48.7559
           28           2      0.9000      0.0067   1401.0110    703.0000     48.7845
           28           3      0.9000      0.0133   1401.5391    703.0000     48.8135
           28           4      0.9000      0.0200   1402.0755    703.0000     48.8431
           28           5      0.9000      0.0267   1402.6208    703.0000     48.8731
           28           6      0.9000      0.0333   1403.1756    703.0000     48.9038
           28           7      0.9000      0.0400   1403.7405    703.0000     48.9350
           28           8      0.9000      0.0467   1404.3162    703.0000     48.9669
           28           9      0.9000      0.0533   1404.9033    703.0000     48.9994
           28          10      0.9000      0.0600   1405.5025    703.0000     49.0327
           28          11      0.9000      0.0667   1406.1146    703.0000     49.0667
           28          12      0.9000      0.0733   1406.7404    703.0000     49.1015
           28          13      0.9000      0.0800   1407.3805    703.0000     49.1372
           28          14      0.9000      0.0867   1408.0359    703.0000     49.1738
           28          15      0.9000      0.0933   1408.7073    703.0000     49.2113
           28          16      0.9000      0.1000   1409.3955    703.0000     49.2499
           28          17      0.9000      0.1067   1410.1013    703.0000     49.2894
           28          18      0.9000      0.1133   1410.8257    703.0000     49.3301
           28          19      0.9000      0.1200   1411.5694    703.0000     49.3720
           28          20      0.9000      0.1267   1412.3331    703.0000     49.4150
           28          21      0.9000      0.1333   1413.1176    703.0000     49.4593
           28          22      0.9000      0.1400   1413.9235    703.0000     49.5048
           28          23      0.9000      0.1467   1414.7515    703.0000     49.5518
           28          24      0.9000      0.1533   1415.6019    703.0000     49.6000
           28          25      0.9000      0.1600   1416.4749    703.0000     49.6497
           28          26      0.9000      0.1667   1417.3709    703.0000     49.7007
           28          27      0.9000      0.1733   1418.2895    703.0000     49.7531
           28          28      0.9000      0.1800   1419.2304    703.0000     49.8069
           28          29      0.9000      0.1867   1420.1930    703.0000     49.8621
           28          30      0.9000      0.1933   1421.1763    703.0000     49.9186
           28          31      0.9000      0.2000   1422.1790    703.0000     49.9763
           29           1      0.9333      0.0000   1399.5200    703.0000     48.7026
           29           2      0.9333      0.0067   1399.9723    703.0000     48.7274
           29           3      0.9333      0.0133   1400.4331    703.0000     48.7527
           29           4      0.9333      0.0200   1400.9029    703.0000     48.7785
           29           5      0.9333      0.0267   1401.3823    703.0000     48.8049
           29           6      0.9333      0.0333   1401.8721    703.0000     48.8318
           29           7      0.9333      0.0400   1402.3730    703.0000     48.8595
           29           8      0.9333      0.0467   1402.8858    703.0000     48.8878
           29           9      0.9333      0.0533   1403.4115    703.0000     48.9168
           29          10      0.9333      0.0600   1403.9509    703.0000     48.9466
           29          11      0.9333      0.0667   1404.5050    703.0000     48.9773
           29          12      0.9333      0.0733   1405.0749    703.0000     49.0089
           29          13      0.9333      0.0800   1405.6617    703.0000     49.0415
           29          14      0.9333      0.0867   1406.2667    703.0000     49.0752
           29          15      0.9333      0.0933   1406.8911    703.0000     49.1099
           29          16      0.9333      0.1000   1407.5363    703.0000     49.1459
           29          17      0.9333      0.1067   1408.2038    703.0000     49.1832
           29          18      0.9333      0.1133   1408.8951    703.0000     49.2218
           29          19      0.9333      0.1200   1409.6118    703.0000     49.2620
           29          20      0.9333      0.1267   1410.3555    703.0000     49.3037
           29          21      0.9333      0.1333   1411.1280    703.0000     49.3471
           29          22      0.9333      0.1400   1411.9310    703.0000     49.3923
           29          23      0.9333      0.1467   1412.7661    703.0000     49.4394
           29          24      0.9333      0.1533   1413.6351    703.0000     49.4885
           29          25      0.9333      0.1600   1414.5394    703.0000     49.5397
           29          26      0.9333      0.1667   1415.4803    703.0000     49.5931
           29          27      0.9333      0.1733   1416.4588    703.0000     49.6487
           29          28      0.9333      0.1800   1417.4754    703.0000     49.7067
           29          29      0.9333      0.1867   1418.5301    703.0000     49.7669
           29          30      0.9333      0.1933   1419.6220    703.0000     49.8294
           29          31      0.9333      0.2000   1420.7495    703.0000     49.8941
           30           1      0.9667      0.0000   1398.3404    703.0000     48.6381
           30           2      0.9667      0.0067   1398.7095    703.0000     48.6583
           30           3      0.9667      0.0133   1399.0867    703.0000     48.6789
           30           4      0.9667      0.0200   1399.4725    703.0000     48.7000
           30           5      0.9667      0.0267   1399.8675    703.0000     48.7217
           30           6      0.9667      0.0333   1400.2725    703.0000     48.7439
           30           7      0.9667      0.0400   1400.6883    703.0000     48.7667
           30           8      0.9667      0.0467   1401.1157    703.0000     48.7902
           30           9      0.9667      0.0533   1401.5557    703.0000     48.8144
           30          10      0.9667      0.0600   1402.0095    703.0000     48.8394
           30          11      0.9667      0.0667   1402.4780    703.0000     48.8652
           30          12      0.9667      0.0733   1402.9626    703.0000     48.8920
           30          13      0.9667      0.0800   1403.4648    703.0000     48.9197
           30          14      0.9667      0.0867   1403.9860    703.0000     48.9486
           30          15      0.9667      0.0933   1404.5281    703.0000     48.9786
           30          16      0.9667      0.1000   1405.0929    703.0000     49.0099
           30          17      0.9667      0.1067   1405.6827    703.0000     49.0427
           30          18      0.9667      0.1133   1406.2997    703.0000     49.0770
           30          19      0.9667      0.1200   1406.9467    703.0000     49.1130
           30          20      0.9667      0.1267   1407.6267    703.0000     49.1509
           30          21      0.9667      0.1333   1408.3428    703.0000     49.1909
           30          22      0.9667      0.1400   1409.0990    703.0000     49.2332
           30          23      0.9667      0.1467   1409.8990    703.0000     49.2781
           30          24      0.9667      0.1533   1410.7475    703.0000     49.3257
           30          25      0.9667      0.1600   1411.6492    703.0000     49.3765
           30          26      0.9667      0.1667   1412.6092    703.0000     49.4306
           30          27      0.9667      0.1733   1413.6328    703.0000     49.4884
           30          28      0.9667      0.1800   1414.7251    703.0000     49.5503
           30          29      0.9667      0.1867   1415.8908    703.0000     49.6164
           30          30      0.9667      0.1933   1417.1331    703.0000     49.6871
           30          31      0.9667      0.2000   1418.4529    703.0000     49.7625
           31           1      1.0000      0.0000   1396.9639    703.0000     48.5630
           31           2      1.0000      0.0067   1397.2353    703.0000     48.5778
           31           3      1.0000      0.0133   1397.5130    703.0000     48.5929
           31           4      1.0000      0.0200   1397.7974    703.0000     48.6084
           31           5      1.0000      0.0267   1398.0891    703.0000     48.6244
           31           6      1.0000      0.0333   1398.3886    703.0000     48.6407
           31           7      1.0000      0.0400   1398.6965    703.0000     48.6576
           31           8      1.0000      0.0467   1399.0137    703.0000     48.6749
           31           9      1.0000      0.0533   1399.3408    703.0000     48.6928
           31          10      1.0000      0.0600   1399.6788    703.0000     48.7113
           31          11      1.0000      0.0667   1400.0287    703.0000     48.7305
           31          12      1.0000      0.0733   1400.3916    703.0000     48.7504
           31          13      1.0000      0.0800   1400.7687    703.0000     48.7711
           31          14      1.0000      0.0867   1401.1615    703.0000     48.7927
           31          15      1.0000      0.0933   1401.5716    703.0000     48.8153
           31          16      1.0000      0.1000   1402.0009    703.0000     48.8389
           31          17      1.0000      0.1067   1402.4515    703.0000     48.8638
           31          18      1.0000      0.1133   1402.9259    703.0000     48.8900
           31          19      1.0000      0.1200   1403.4271    703.0000     48.9177
           31          20      1.0000      0.1267   1403.9586    703.0000     48.9471
           31          21      1.0000      0.1333   1404.5246    703.0000     48.9784
           31          22      1.0000      0.1400   1405.1301    703.0000     49.0120
           31          23      1.0000      0.1467   1405.7813    703.0000     49.0482
           31          24      1.0000      0.1533   1406.4862    703.0000     49.0874
           31          25      1.0000      0.1600   1407.2543    703.0000     49.1302
           31          26      1.0000      0.1667   1408.0982    703.0000     49.1773
           31          27      1.0000      0.1733   1409.0340    703.0000     49.2296
           31          28      1.0000      0.1800   1410.0828    703.0000     49.2884
           31          29      1.0000      0.1867   1411.2727    703.0000     49.3553
           31          30      1.0000      0.1933   1412.6412    703.0000     49.4324
           31          31      1.0000      0.2000   1414.2393    703.0000     49.5227
