 ====================================================================================
               Transient state solution for a 2D rectangular plate
                    for applications in steel reheating
                 e.g. Reheating furnaces for rolling processing
 ====================================================================================
 Author: Dickson Alves de Souza

 Based on lectures by professor Roberto Parreiras Tavares

 and book Numerical Heat Transfer and Fluid Flow
 by Suhas V. Patankar (1980)

 Federal University of Minas Gerais (UFMG)
 October 26th, 2017
 ====================================================================================
                              Input parameters:

 Lenght in X direction (meters):           1.0000
 Lenght in Y direction (meters):           0.2000
 Nodes in X direction:                         31
 Nodes in Y direction:                         31
 ====================================================================================

                       STAGE                1/  5
                       START Time:         0.0000
                       END Time:        1140.0000
                       Iterations:             1911

 ====================================================================================
 Temperature of fluid at left face (T left):             1223.1500
 Temperature of fluid at right face (T right):           1223.1500
 Temperature of fluid at bottom face (T bottom):         1223.1500
 Temperature of fluid at top face (T top):               1223.1500
 ------------------------------------------------------------------------------------
 Heat transfer coefficient at left face (H left):          50.0000
 Heat transfer coefficient at right face (H right):        50.0000
 Heat transfer coefficient at bottom face (H bottom):       8.0000
 Heat transfer coefficient at top face (H top):           150.0000
 ====================================================================================


 ====================================================================================

                       STAGE                2/  5
                       START Time:      1140.0000
                       END Time:        3060.0000
                       Iterations:             1911

 ====================================================================================
 Temperature of fluid at left face (T left):             1423.1500
 Temperature of fluid at right face (T right):           1423.1500
 Temperature of fluid at bottom face (T bottom):         1423.1500
 Temperature of fluid at top face (T top):               1423.1500
 ------------------------------------------------------------------------------------
 Heat transfer coefficient at left face (H left):          50.0000
 Heat transfer coefficient at right face (H right):        50.0000
 Heat transfer coefficient at bottom face (H bottom):       8.0000
 Heat transfer coefficient at top face (H top):           150.0000
 ====================================================================================


 ====================================================================================

                       STAGE                3/  5
                       START Time:      3060.0000
                       END Time:        4980.0000
                       Iterations:             1911

 ====================================================================================
 Temperature of fluid at left face (T left):             1513.1500
 Temperature of fluid at right face (T right):           1513.1500
 Temperature of fluid at bottom face (T bottom):         1513.1500
 Temperature of fluid at top face (T top):               1513.1500
 ------------------------------------------------------------------------------------
 Heat transfer coefficient at left face (H left):          50.0000
 Heat transfer coefficient at right face (H right):        50.0000
 Heat transfer coefficient at bottom face (H bottom):       8.0000
 Heat transfer coefficient at top face (H top):           150.0000
 ====================================================================================


 ====================================================================================

                       STAGE                4/  5
                       START Time:      4980.0000
                       END Time:        8400.0000
                       Iterations:             1911

 ====================================================================================
 Temperature of fluid at left face (T left):             1503.1500
 Temperature of fluid at right face (T right):           1503.1500
 Temperature of fluid at bottom face (T bottom):         1503.1500
 Temperature of fluid at top face (T top):               1523.1500
 ------------------------------------------------------------------------------------
 Heat transfer coefficient at left face (H left):          50.0000
 Heat transfer coefficient at right face (H right):        50.0000
 Heat transfer coefficient at bottom face (H bottom):       8.0000
 Heat transfer coefficient at top face (H top):           150.0000
 ====================================================================================


 ====================================================================================

                       STAGE                5/  5
                       START Time:      8400.0000
                       END Time:       18400.0000
                       Iterations:             1911

 ====================================================================================
 Temperature of fluid at left face (T left):             1393.1500
 Temperature of fluid at right face (T right):           1393.1500
 Temperature of fluid at bottom face (T bottom):         1393.1500
 Temperature of fluid at top face (T top):               1433.1500
 ------------------------------------------------------------------------------------
 Heat transfer coefficient at left face (H left):          50.0000
 Heat transfer coefficient at right face (H right):        50.0000
 Heat transfer coefficient at bottom face (H bottom):       8.0000
 Heat transfer coefficient at top face (H top):           150.0000
 ====================================================================================


 SOLUTION of LINEAR SYSTEM: TDMA (tri-diagonal matrix algorithm)
      ADI approach employed in solution.
 Tolerance:       0.0010

 ====================================================================================
                    Calculation Results
 Current time:    12400.000000000000       seconds
 Maximum Temperature :    1428.4479063820988
 Minimum Temperature :    1398.0270433656115
 Average(algebraic, non-weigthed) Temperature :    1415.5986185776721
 ====================================================================================
            I           J        X(m)        Y(m)        T(K)  Cp(J/kg.K) K(W/sq-m.K)
 ====================================================================================
            1           1      0.0000      0.0000   1398.0270    703.0000     48.6210
            1           2      0.0000      0.0067   1398.3713    703.0000     48.6398
            1           3      0.0000      0.0133   1398.7174    703.0000     48.6587
            1           4      0.0000      0.0200   1399.0657    703.0000     48.6778
            1           5      0.0000      0.0267   1399.4163    703.0000     48.6969
            1           6      0.0000      0.0333   1399.7696    703.0000     48.7163
            1           7      0.0000      0.0400   1400.1262    703.0000     48.7359
            1           8      0.0000      0.0467   1400.4864    703.0000     48.7556
            1           9      0.0000      0.0533   1400.8511    703.0000     48.7757
            1          10      0.0000      0.0600   1401.2209    703.0000     48.7960
            1          11      0.0000      0.0667   1401.5966    703.0000     48.8167
            1          12      0.0000      0.0733   1401.9795    703.0000     48.8378
            1          13      0.0000      0.0800   1402.3705    703.0000     48.8593
            1          14      0.0000      0.0867   1402.7712    703.0000     48.8814
            1          15      0.0000      0.0933   1403.1830    703.0000     48.9042
            1          16      0.0000      0.1000   1403.6079    703.0000     48.9277
            1          17      0.0000      0.1067   1404.0481    703.0000     48.9520
            1          18      0.0000      0.1133   1404.5062    703.0000     48.9774
            1          19      0.0000      0.1200   1404.9850    703.0000     49.0039
            1          20      0.0000      0.1267   1405.4882    703.0000     49.0319
            1          21      0.0000      0.1333   1406.0202    703.0000     49.0614
            1          22      0.0000      0.1400   1406.5862    703.0000     49.0929
            1          23      0.0000      0.1467   1407.1924    703.0000     49.1267
            1          24      0.0000      0.1533   1407.8470    703.0000     49.1632
            1          25      0.0000      0.1600   1408.5598    703.0000     49.2031
            1          26      0.0000      0.1667   1409.3436    703.0000     49.2469
            1          27      0.0000      0.1733   1410.2146    703.0000     49.2958
            1          28      0.0000      0.1800   1411.1944    703.0000     49.3509
            1          29      0.0000      0.1867   1412.3111    703.0000     49.4138
            1          30      0.0000      0.1933   1413.6027    703.0000     49.4867
            1          31      0.0000      0.2000   1415.1204    703.0000     49.5727
            2           1      0.0333      0.0000   1399.7970    703.0000     48.7178
            2           2      0.0333      0.0067   1400.2659    703.0000     48.7435
            2           3      0.0333      0.0133   1400.7368    703.0000     48.7694
            2           4      0.0333      0.0200   1401.2099    703.0000     48.7954
            2           5      0.0333      0.0267   1401.6856    703.0000     48.8216
            2           6      0.0333      0.0333   1402.1643    703.0000     48.8480
            2           7      0.0333      0.0400   1402.6465    703.0000     48.8745
            2           8      0.0333      0.0467   1403.1329    703.0000     48.9014
            2           9      0.0333      0.0533   1403.6242    703.0000     48.9286
            2          10      0.0333      0.0600   1404.1212    703.0000     48.9561
            2          11      0.0333      0.0667   1404.6251    703.0000     48.9840
            2          12      0.0333      0.0733   1405.1369    703.0000     49.0124
            2          13      0.0333      0.0800   1405.6579    703.0000     49.0413
            2          14      0.0333      0.0867   1406.1897    703.0000     49.0709
            2          15      0.0333      0.0933   1406.7340    703.0000     49.1012
            2          16      0.0333      0.1000   1407.2928    703.0000     49.1323
            2          17      0.0333      0.1067   1407.8681    703.0000     49.1644
            2          18      0.0333      0.1133   1408.4625    703.0000     49.1976
            2          19      0.0333      0.1200   1409.0787    703.0000     49.2321
            2          20      0.0333      0.1267   1409.7199    703.0000     49.2680
            2          21      0.0333      0.1333   1410.3895    703.0000     49.3056
            2          22      0.0333      0.1400   1411.0913    703.0000     49.3451
            2          23      0.0333      0.1467   1411.8297    703.0000     49.3866
            2          24      0.0333      0.1533   1412.6093    703.0000     49.4306
            2          25      0.0333      0.1600   1413.4353    703.0000     49.4772
            2          26      0.0333      0.1667   1414.3129    703.0000     49.5269
            2          27      0.0333      0.1733   1415.2479    703.0000     49.5799
            2          28      0.0333      0.1800   1416.2458    703.0000     49.6366
            2          29      0.0333      0.1867   1417.3115    703.0000     49.6973
            2          30      0.0333      0.1933   1418.4487    703.0000     49.7622
            2          31      0.0333      0.2000   1419.6588    703.0000     49.8315
            3           1      0.0667      0.0000   1401.3433    703.0000     48.8027
            3           2      0.0667      0.0067   1401.9205    703.0000     48.8345
            3           3      0.0667      0.0133   1402.4984    703.0000     48.8664
            3           4      0.0667      0.0200   1403.0774    703.0000     48.8983
            3           5      0.0667      0.0267   1403.6577    703.0000     48.9304
            3           6      0.0667      0.0333   1404.2396    703.0000     48.9626
            3           7      0.0667      0.0400   1404.8235    703.0000     48.9950
            3           8      0.0667      0.0467   1405.4099    703.0000     49.0275
            3           9      0.0667      0.0533   1405.9995    703.0000     49.0603
            3          10      0.0667      0.0600   1406.5930    703.0000     49.0933
            3          11      0.0667      0.0667   1407.1911    703.0000     49.1266
            3          12      0.0667      0.0733   1407.7947    703.0000     49.1603
            3          13      0.0667      0.0800   1408.4050    703.0000     49.1944
            3          14      0.0667      0.0867   1409.0230    703.0000     49.2290
            3          15      0.0667      0.0933   1409.6501    703.0000     49.2641
            3          16      0.0667      0.1000   1410.2875    703.0000     49.2999
            3          17      0.0667      0.1067   1410.9368    703.0000     49.3364
            3          18      0.0667      0.1133   1411.5996    703.0000     49.3737
            3          19      0.0667      0.1200   1412.2777    703.0000     49.4119
            3          20      0.0667      0.1267   1412.9729    703.0000     49.4511
            3          21      0.0667      0.1333   1413.6870    703.0000     49.4915
            3          22      0.0667      0.1400   1414.4221    703.0000     49.5331
            3          23      0.0667      0.1467   1415.1801    703.0000     49.5761
            3          24      0.0667      0.1533   1415.9629    703.0000     49.6205
            3          25      0.0667      0.1600   1416.7726    703.0000     49.6666
            3          26      0.0667      0.1667   1417.6106    703.0000     49.7144
            3          27      0.0667      0.1733   1418.4784    703.0000     49.7639
            3          28      0.0667      0.1800   1419.3771    703.0000     49.8153
            3          29      0.0667      0.1867   1420.3069    703.0000     49.8686
            3          30      0.0667      0.1933   1421.2676    703.0000     49.9238
            3          31      0.0667      0.2000   1422.2581    703.0000     49.9808
            4           1      0.1000      0.0000   1402.6498    703.0000     48.8747
            4           2      0.1000      0.0067   1403.3179    703.0000     48.9116
            4           3      0.1000      0.0133   1403.9847    703.0000     48.9485
            4           4      0.1000      0.0200   1404.6504    703.0000     48.9854
            4           5      0.1000      0.0267   1405.3150    703.0000     49.0223
            4           6      0.1000      0.0333   1405.9787    703.0000     49.0591
            4           7      0.1000      0.0400   1406.6417    703.0000     49.0960
            4           8      0.1000      0.0467   1407.3043    703.0000     49.1330
            4           9      0.1000      0.0533   1407.9669    703.0000     49.1699
            4          10      0.1000      0.0600   1408.6300    703.0000     49.2070
            4          11      0.1000      0.0667   1409.2940    703.0000     49.2442
            4          12      0.1000      0.0733   1409.9596    703.0000     49.2815
            4          13      0.1000      0.0800   1410.6273    703.0000     49.3190
            4          14      0.1000      0.0867   1411.2980    703.0000     49.3567
            4          15      0.1000      0.0933   1411.9723    703.0000     49.3947
            4          16      0.1000      0.1000   1412.6512    703.0000     49.4329
            4          17      0.1000      0.1067   1413.3354    703.0000     49.4716
            4          18      0.1000      0.1133   1414.0261    703.0000     49.5107
            4          19      0.1000      0.1200   1414.7240    703.0000     49.5502
            4          20      0.1000      0.1267   1415.4302    703.0000     49.5903
            4          21      0.1000      0.1333   1416.1456    703.0000     49.6309
            4          22      0.1000      0.1400   1416.8712    703.0000     49.6722
            4          23      0.1000      0.1467   1417.6079    703.0000     49.7142
            4          24      0.1000      0.1533   1418.3565    703.0000     49.7570
            4          25      0.1000      0.1600   1419.1177    703.0000     49.8005
            4          26      0.1000      0.1667   1419.8920    703.0000     49.8448
            4          27      0.1000      0.1733   1420.6798    703.0000     49.8900
            4          28      0.1000      0.1800   1421.4813    703.0000     49.9361
            4          29      0.1000      0.1867   1422.2963    703.0000     49.9830
            4          30      0.1000      0.1933   1423.1245    703.0000     50.0308
            4          31      0.1000      0.2000   1423.9651    703.0000     50.0794
            5           1      0.1333      0.0000   1403.7258    703.0000     48.9342
            5           2      0.1333      0.0067   1404.4684    703.0000     48.9753
            5           3      0.1333      0.0133   1405.2073    703.0000     49.0163
            5           4      0.1333      0.0200   1405.9424    703.0000     49.0571
            5           5      0.1333      0.0267   1406.6736    703.0000     49.0978
            5           6      0.1333      0.0333   1407.4009    703.0000     49.1383
            5           7      0.1333      0.0400   1408.1244    703.0000     49.1787
            5           8      0.1333      0.0467   1408.8440    703.0000     49.2190
            5           9      0.1333      0.0533   1409.5601    703.0000     49.2591
            5          10      0.1333      0.0600   1410.2727    703.0000     49.2991
            5          11      0.1333      0.0667   1410.9822    703.0000     49.3389
            5          12      0.1333      0.0733   1411.6888    703.0000     49.3787
            5          13      0.1333      0.0800   1412.3928    703.0000     49.4184
            5          14      0.1333      0.0867   1413.0947    703.0000     49.4580
            5          15      0.1333      0.0933   1413.7950    703.0000     49.4976
            5          16      0.1333      0.1000   1414.4940    703.0000     49.5372
            5          17      0.1333      0.1067   1415.1924    703.0000     49.5768
            5          18      0.1333      0.1133   1415.8905    703.0000     49.6164
            5          19      0.1333      0.1200   1416.5890    703.0000     49.6561
            5          20      0.1333      0.1267   1417.2884    703.0000     49.6960
            5          21      0.1333      0.1333   1417.9892    703.0000     49.7360
            5          22      0.1333      0.1400   1418.6920    703.0000     49.7761
            5          23      0.1333      0.1467   1419.3972    703.0000     49.8165
            5          24      0.1333      0.1533   1420.1053    703.0000     49.8571
            5          25      0.1333      0.1600   1420.8166    703.0000     49.8979
            5          26      0.1333      0.1667   1421.5315    703.0000     49.9390
            5          27      0.1333      0.1733   1422.2502    703.0000     49.9804
            5          28      0.1333      0.1800   1422.9728    703.0000     50.0221
            5          29      0.1333      0.1867   1423.6993    703.0000     50.0640
            5          30      0.1333      0.1933   1424.4296    703.0000     50.1063
            5          31      0.1333      0.2000   1425.1635    703.0000     50.1488
            6           1      0.1667      0.0000   1404.5955    703.0000     48.9823
            6           2      0.1667      0.0067   1405.3981    703.0000     49.0269
            6           3      0.1667      0.0133   1406.1945    703.0000     49.0711
            6           4      0.1667      0.0200   1406.9844    703.0000     49.1151
            6           5      0.1667      0.0267   1407.7677    703.0000     49.1588
            6           6      0.1667      0.0333   1408.5441    703.0000     49.2022
            6           7      0.1667      0.0400   1409.3135    703.0000     49.2453
            6           8      0.1667      0.0467   1410.0758    703.0000     49.2880
            6           9      0.1667      0.0533   1410.8310    703.0000     49.3304
            6          10      0.1667      0.0600   1411.5790    703.0000     49.3725
            6          11      0.1667      0.0667   1412.3200    703.0000     49.4143
            6          12      0.1667      0.0733   1413.0540    703.0000     49.4557
            6          13      0.1667      0.0800   1413.7813    703.0000     49.4968
            6          14      0.1667      0.0867   1414.5019    703.0000     49.5376
            6          15      0.1667      0.0933   1415.2161    703.0000     49.5781
            6          16      0.1667      0.1000   1415.9242    703.0000     49.6183
            6          17      0.1667      0.1067   1416.6265    703.0000     49.6583
            6          18      0.1667      0.1133   1417.3233    703.0000     49.6980
            6          19      0.1667      0.1200   1418.0149    703.0000     49.7374
            6          20      0.1667      0.1267   1418.7017    703.0000     49.7767
            6          21      0.1667      0.1333   1419.3840    703.0000     49.8157
            6          22      0.1667      0.1400   1420.0623    703.0000     49.8546
            6          23      0.1667      0.1467   1420.7368    703.0000     49.8933
            6          24      0.1667      0.1533   1421.4080    703.0000     49.9319
            6          25      0.1667      0.1600   1422.0762    703.0000     49.9704
            6          26      0.1667      0.1667   1422.7417    703.0000     50.0087
            6          27      0.1667      0.1733   1423.4047    703.0000     50.0470
            6          28      0.1667      0.1800   1424.0657    703.0000     50.0852
            6          29      0.1667      0.1867   1424.7246    703.0000     50.1233
            6          30      0.1667      0.1933   1425.3819    703.0000     50.1614
            6          31      0.1667      0.2000   1426.0376    703.0000     50.1995
            7           1      0.2000      0.0000   1405.2885    703.0000     49.0208
            7           2      0.2000      0.0067   1406.1388    703.0000     49.0680
            7           3      0.2000      0.0133   1406.9806    703.0000     49.1149
            7           4      0.2000      0.0200   1407.8135    703.0000     49.1614
            7           5      0.2000      0.0267   1408.6372    703.0000     49.2074
            7           6      0.2000      0.0333   1409.4514    703.0000     49.2530
            7           7      0.2000      0.0400   1410.2557    703.0000     49.2981
            7           8      0.2000      0.0467   1411.0500    703.0000     49.3427
            7           9      0.2000      0.0533   1411.8340    703.0000     49.3869
            7          10      0.2000      0.0600   1412.6077    703.0000     49.4305
            7          11      0.2000      0.0667   1413.3710    703.0000     49.4736
            7          12      0.2000      0.0733   1414.1239    703.0000     49.5162
            7          13      0.2000      0.0800   1414.8663    703.0000     49.5583
            7          14      0.2000      0.0867   1415.5983    703.0000     49.5998
            7          15      0.2000      0.0933   1416.3201    703.0000     49.6408
            7          16      0.2000      0.1000   1417.0318    703.0000     49.6814
            7          17      0.2000      0.1067   1417.7336    703.0000     49.7214
            7          18      0.2000      0.1133   1418.4257    703.0000     49.7609
            7          19      0.2000      0.1200   1419.1084    703.0000     49.8000
            7          20      0.2000      0.1267   1419.7819    703.0000     49.8385
            7          21      0.2000      0.1333   1420.4466    703.0000     49.8767
            7          22      0.2000      0.1400   1421.1028    703.0000     49.9144
            7          23      0.2000      0.1467   1421.7509    703.0000     49.9516
            7          24      0.2000      0.1533   1422.3912    703.0000     49.9885
            7          25      0.2000      0.1600   1423.0242    703.0000     50.0250
            7          26      0.2000      0.1667   1423.6502    703.0000     50.0612
            7          27      0.2000      0.1733   1424.2695    703.0000     50.0970
            7          28      0.2000      0.1800   1424.8827    703.0000     50.1325
            7          29      0.2000      0.1867   1425.4902    703.0000     50.1677
            7          30      0.2000      0.1933   1426.0922    703.0000     50.2027
            7          31      0.2000      0.2000   1426.6893    703.0000     50.2374
            8           1      0.2333      0.0000   1405.8345    703.0000     49.0511
            8           2      0.2333      0.0067   1406.7222    703.0000     49.1005
            8           3      0.2333      0.0133   1407.5996    703.0000     49.1494
            8           4      0.2333      0.0200   1408.4659    703.0000     49.1978
            8           5      0.2333      0.0267   1409.3209    703.0000     49.2457
            8           6      0.2333      0.0333   1410.1641    703.0000     49.2930
            8           7      0.2333      0.0400   1410.9950    703.0000     49.3396
            8           8      0.2333      0.0467   1411.8134    703.0000     49.3857
            8           9      0.2333      0.0533   1412.6190    703.0000     49.4311
            8          10      0.2333      0.0600   1413.4115    703.0000     49.4759
            8          11      0.2333      0.0667   1414.1909    703.0000     49.5200
            8          12      0.2333      0.0733   1414.9570    703.0000     49.5634
            8          13      0.2333      0.0800   1415.7096    703.0000     49.6061
            8          14      0.2333      0.0867   1416.4489    703.0000     49.6482
            8          15      0.2333      0.0933   1417.1749    703.0000     49.6895
            8          16      0.2333      0.1000   1417.8876    703.0000     49.7302
            8          17      0.2333      0.1067   1418.5872    703.0000     49.7701
            8          18      0.2333      0.1133   1419.2739    703.0000     49.8094
            8          19      0.2333      0.1200   1419.9479    703.0000     49.8481
            8          20      0.2333      0.1267   1420.6095    703.0000     49.8860
            8          21      0.2333      0.1333   1421.2591    703.0000     49.9233
            8          22      0.2333      0.1400   1421.8968    703.0000     49.9600
            8          23      0.2333      0.1467   1422.5232    703.0000     49.9961
            8          24      0.2333      0.1533   1423.1386    703.0000     50.0316
            8          25      0.2333      0.1600   1423.7436    703.0000     50.0666
            8          26      0.2333      0.1667   1424.3385    703.0000     50.1010
            8          27      0.2333      0.1733   1424.9239    703.0000     50.1349
            8          28      0.2333      0.1800   1425.5004    703.0000     50.1683
            8          29      0.2333      0.1867   1426.0683    703.0000     50.2013
            8          30      0.2333      0.1933   1426.6284    703.0000     50.2338
            8          31      0.2333      0.2000   1427.1812    703.0000     50.2660
            9           1      0.2667      0.0000   1406.2601    703.0000     49.0748
            9           2      0.2667      0.0067   1407.1770    703.0000     49.1259
            9           3      0.2667      0.0133   1408.0819    703.0000     49.1764
            9           4      0.2667      0.0200   1408.9742    703.0000     49.2263
            9           5      0.2667      0.0267   1409.8532    703.0000     49.2755
            9           6      0.2667      0.0333   1410.7186    703.0000     49.3241
            9           7      0.2667      0.0400   1411.5698    703.0000     49.3720
            9           8      0.2667      0.0467   1412.4064    703.0000     49.4191
            9           9      0.2667      0.0533   1413.2281    703.0000     49.4655
            9          10      0.2667      0.0600   1414.0347    703.0000     49.5111
            9          11      0.2667      0.0667   1414.8258    703.0000     49.5560
            9          12      0.2667      0.0733   1415.6013    703.0000     49.6000
            9          13      0.2667      0.0800   1416.3611    703.0000     49.6432
            9          14      0.2667      0.0867   1417.1052    703.0000     49.6855
            9          15      0.2667      0.0933   1417.8335    703.0000     49.7271
            9          16      0.2667      0.1000   1418.5461    703.0000     49.7678
            9          17      0.2667      0.1067   1419.2432    703.0000     49.8077
            9          18      0.2667      0.1133   1419.9248    703.0000     49.8467
            9          19      0.2667      0.1200   1420.5913    703.0000     49.8850
            9          20      0.2667      0.1267   1421.2429    703.0000     49.9224
            9          21      0.2667      0.1333   1421.8800    703.0000     49.9591
            9          22      0.2667      0.1400   1422.5029    703.0000     49.9950
            9          23      0.2667      0.1467   1423.1120    703.0000     50.0301
            9          24      0.2667      0.1533   1423.7079    703.0000     50.0645
            9          25      0.2667      0.1600   1424.2909    703.0000     50.0982
            9          26      0.2667      0.1667   1424.8618    703.0000     50.1313
            9          27      0.2667      0.1733   1425.4210    703.0000     50.1637
            9          28      0.2667      0.1800   1425.9691    703.0000     50.1955
            9          29      0.2667      0.1867   1426.5069    703.0000     50.2268
            9          30      0.2667      0.1933   1427.0350    703.0000     50.2575
            9          31      0.2667      0.2000   1427.5542    703.0000     50.2877
           10           1      0.3000      0.0000   1406.5881    703.0000     49.0930
           10           2      0.3000      0.0067   1407.5275    703.0000     49.1454
           10           3      0.3000      0.0133   1408.4535    703.0000     49.1971
           10           4      0.3000      0.0200   1409.3656    703.0000     49.2482
           10           5      0.3000      0.0267   1410.2631    703.0000     49.2985
           10           6      0.3000      0.0333   1411.1453    703.0000     49.3481
           10           7      0.3000      0.0400   1412.0119    703.0000     49.3969
           10           8      0.3000      0.0467   1412.8623    703.0000     49.4449
           10           9      0.3000      0.0533   1413.6961    703.0000     49.4920
           10          10      0.3000      0.0600   1414.5131    703.0000     49.5382
           10          11      0.3000      0.0667   1415.3128    703.0000     49.5836
           10          12      0.3000      0.0733   1416.0952    703.0000     49.6281
           10          13      0.3000      0.0800   1416.8601    703.0000     49.6716
           10          14      0.3000      0.0867   1417.6074    703.0000     49.7142
           10          15      0.3000      0.0933   1418.3371    703.0000     49.7558
           10          16      0.3000      0.1000   1419.0492    703.0000     49.7966
           10          17      0.3000      0.1067   1419.7439    703.0000     49.8364
           10          18      0.3000      0.1133   1420.4213    703.0000     49.8752
           10          19      0.3000      0.1200   1421.0816    703.0000     49.9131
           10          20      0.3000      0.1267   1421.7252    703.0000     49.9502
           10          21      0.3000      0.1333   1422.3524    703.0000     49.9863
           10          22      0.3000      0.1400   1422.9637    703.0000     50.0215
           10          23      0.3000      0.1467   1423.5593    703.0000     50.0559
           10          24      0.3000      0.1533   1424.1400    703.0000     50.0895
           10          25      0.3000      0.1600   1424.7062    703.0000     50.1223
           10          26      0.3000      0.1667   1425.2585    703.0000     50.1543
           10          27      0.3000      0.1733   1425.7976    703.0000     50.1856
           10          28      0.3000      0.1800   1426.3242    703.0000     50.2162
           10          29      0.3000      0.1867   1426.8391    703.0000     50.2461
           10          30      0.3000      0.1933   1427.3429    703.0000     50.2754
           10          31      0.3000      0.2000   1427.8366    703.0000     50.3042
           11           1      0.3333      0.0000   1406.8372    703.0000     49.1069
           11           2      0.3333      0.0067   1407.7935    703.0000     49.1603
           11           3      0.3333      0.0133   1408.7356    703.0000     49.2129
           11           4      0.3333      0.0200   1409.6627    703.0000     49.2648
           11           5      0.3333      0.0267   1410.5741    703.0000     49.3160
           11           6      0.3333      0.0333   1411.4691    703.0000     49.3663
           11           7      0.3333      0.0400   1412.3472    703.0000     49.4158
           11           8      0.3333      0.0467   1413.2079    703.0000     49.4644
           11           9      0.3333      0.0533   1414.0508    703.0000     49.5121
           11          10      0.3333      0.0600   1414.8755    703.0000     49.5588
           11          11      0.3333      0.0667   1415.6816    703.0000     49.6045
           11          12      0.3333      0.0733   1416.4690    703.0000     49.6493
           11          13      0.3333      0.0800   1417.2376    703.0000     49.6931
           11          14      0.3333      0.0867   1417.9871    703.0000     49.7359
           11          15      0.3333      0.0933   1418.7176    703.0000     49.7776
           11          16      0.3333      0.1000   1419.4291    703.0000     49.8183
           11          17      0.3333      0.1067   1420.1218    703.0000     49.8580
           11          18      0.3333      0.1133   1420.7958    703.0000     49.8967
           11          19      0.3333      0.1200   1421.4513    703.0000     49.9344
           11          20      0.3333      0.1267   1422.0886    703.0000     49.9711
           11          21      0.3333      0.1333   1422.7082    703.0000     50.0068
           11          22      0.3333      0.1400   1423.3105    703.0000     50.0416
           11          23      0.3333      0.1467   1423.8959    703.0000     50.0754
           11          24      0.3333      0.1533   1424.4649    703.0000     50.1083
           11          25      0.3333      0.1600   1425.0183    703.0000     50.1404
           11          26      0.3333      0.1667   1425.5566    703.0000     50.1716
           11          27      0.3333      0.1733   1426.0806    703.0000     50.2020
           11          28      0.3333      0.1800   1426.5909    703.0000     50.2317
           11          29      0.3333      0.1867   1427.0885    703.0000     50.2606
           11          30      0.3333      0.1933   1427.5741    703.0000     50.2889
           11          31      0.3333      0.2000   1428.0486    703.0000     50.3166
           12           1      0.3667      0.0000   1407.0222    703.0000     49.1172
           12           2      0.3667      0.0067   1407.9913    703.0000     49.1713
           12           3      0.3667      0.0133   1408.9453    703.0000     49.2246
           12           4      0.3667      0.0200   1409.8835    703.0000     49.2772
           12           5      0.3667      0.0267   1410.8051    703.0000     49.3290
           12           6      0.3667      0.0333   1411.7095    703.0000     49.3798
           12           7      0.3667      0.0400   1412.5962    703.0000     49.4298
           12           8      0.3667      0.0467   1413.4645    703.0000     49.4789
           12           9      0.3667      0.0533   1414.3140    703.0000     49.5270
           12          10      0.3667      0.0600   1415.1443    703.0000     49.5740
           12          11      0.3667      0.0667   1415.9551    703.0000     49.6201
           12          12      0.3667      0.0733   1416.7462    703.0000     49.6651
           12          13      0.3667      0.0800   1417.5173    703.0000     49.7090
           12          14      0.3667      0.0867   1418.2684    703.0000     49.7519
           12          15      0.3667      0.0933   1418.9994    703.0000     49.7937
           12          16      0.3667      0.1000   1419.7104    703.0000     49.8344
           12          17      0.3667      0.1067   1420.4015    703.0000     49.8741
           12          18      0.3667      0.1133   1421.0728    703.0000     49.9126
           12          19      0.3667      0.1200   1421.7247    703.0000     49.9501
           12          20      0.3667      0.1267   1422.3573    703.0000     49.9866
           12          21      0.3667      0.1333   1422.9712    703.0000     50.0220
           12          22      0.3667      0.1400   1423.5667    703.0000     50.0564
           12          23      0.3667      0.1467   1424.1445    703.0000     50.0898
           12          24      0.3667      0.1533   1424.7049    703.0000     50.1222
           12          25      0.3667      0.1600   1425.2487    703.0000     50.1537
           12          26      0.3667      0.1667   1425.7767    703.0000     50.1844
           12          27      0.3667      0.1733   1426.2894    703.0000     50.2141
           12          28      0.3667      0.1800   1426.7877    703.0000     50.2431
           12          29      0.3667      0.1867   1427.2725    703.0000     50.2713
           12          30      0.3667      0.1933   1427.7446    703.0000     50.2988
           12          31      0.3667      0.2000   1428.2050    703.0000     50.3257
           13           1      0.4000      0.0000   1407.1549    703.0000     49.1246
           13           2      0.4000      0.0067   1408.1330    703.0000     49.1792
           13           3      0.4000      0.0133   1409.0955    703.0000     49.2331
           13           4      0.4000      0.0200   1410.0417    703.0000     49.2861
           13           5      0.4000      0.0267   1410.9707    703.0000     49.3383
           13           6      0.4000      0.0333   1411.8819    703.0000     49.3896
           13           7      0.4000      0.0400   1412.7746    703.0000     49.4399
           13           8      0.4000      0.0467   1413.6483    703.0000     49.4893
           13           9      0.4000      0.0533   1414.5025    703.0000     49.5376
           13          10      0.4000      0.0600   1415.3369    703.0000     49.5850
           13          11      0.4000      0.0667   1416.1510    703.0000     49.6312
           13          12      0.4000      0.0733   1416.9446    703.0000     49.6764
           13          13      0.4000      0.0800   1417.7175    703.0000     49.7205
           13          14      0.4000      0.0867   1418.4697    703.0000     49.7634
           13          15      0.4000      0.0933   1419.2011    703.0000     49.8053
           13          16      0.4000      0.1000   1419.9116    703.0000     49.8460
           13          17      0.4000      0.1067   1420.6015    703.0000     49.8856
           13          18      0.4000      0.1133   1421.2709    703.0000     49.9240
           13          19      0.4000      0.1200   1421.9201    703.0000     49.9614
           13          20      0.4000      0.1267   1422.5493    703.0000     49.9976
           13          21      0.4000      0.1333   1423.1591    703.0000     50.0328
           13          22      0.4000      0.1400   1423.7498    703.0000     50.0669
           13          23      0.4000      0.1467   1424.3220    703.0000     50.1000
           13          24      0.4000      0.1533   1424.8763    703.0000     50.1321
           13          25      0.4000      0.1600   1425.4133    703.0000     50.1633
           13          26      0.4000      0.1667   1425.9337    703.0000     50.1935
           13          27      0.4000      0.1733   1426.4384    703.0000     50.2228
           13          28      0.4000      0.1800   1426.9282    703.0000     50.2513
           13          29      0.4000      0.1867   1427.4038    703.0000     50.2790
           13          30      0.4000      0.1933   1427.8663    703.0000     50.3059
           13          31      0.4000      0.2000   1428.3166    703.0000     50.3322
           14           1      0.4333      0.0000   1407.2438    703.0000     49.1296
           14           2      0.4333      0.0067   1408.2279    703.0000     49.1845
           14           3      0.4333      0.0133   1409.1962    703.0000     49.2387
           14           4      0.4333      0.0200   1410.1477    703.0000     49.2920
           14           5      0.4333      0.0267   1411.0816    703.0000     49.3445
           14           6      0.4333      0.0333   1411.9973    703.0000     49.3961
           14           7      0.4333      0.0400   1412.8940    703.0000     49.4466
           14           8      0.4333      0.0467   1413.7714    703.0000     49.4962
           14           9      0.4333      0.0533   1414.6287    703.0000     49.5448
           14          10      0.4333      0.0600   1415.4658    703.0000     49.5923
           14          11      0.4333      0.0667   1416.2821    703.0000     49.6387
           14          12      0.4333      0.0733   1417.0774    703.0000     49.6840
           14          13      0.4333      0.0800   1417.8516    703.0000     49.7281
           14          14      0.4333      0.0867   1418.6044    703.0000     49.7711
           14          15      0.4333      0.0933   1419.3360    703.0000     49.8130
           14          16      0.4333      0.1000   1420.0462    703.0000     49.8537
           14          17      0.4333      0.1067   1420.7353    703.0000     49.8932
           14          18      0.4333      0.1133   1421.4034    703.0000     49.9316
           14          19      0.4333      0.1200   1422.0508    703.0000     49.9689
           14          20      0.4333      0.1267   1422.6777    703.0000     50.0050
           14          21      0.4333      0.1333   1423.2847    703.0000     50.0401
           14          22      0.4333      0.1400   1423.8722    703.0000     50.0740
           14          23      0.4333      0.1467   1424.4407    703.0000     50.1069
           14          24      0.4333      0.1533   1424.9908    703.0000     50.1388
           14          25      0.4333      0.1600   1425.5232    703.0000     50.1696
           14          26      0.4333      0.1667   1426.0387    703.0000     50.1996
           14          27      0.4333      0.1733   1426.5380    703.0000     50.2286
           14          28      0.4333      0.1800   1427.0220    703.0000     50.2567
           14          29      0.4333      0.1867   1427.4916    703.0000     50.2841
           14          30      0.4333      0.1933   1427.9476    703.0000     50.3107
           14          31      0.4333      0.2000   1428.3912    703.0000     50.3365
           15           1      0.4667      0.0000   1407.2948    703.0000     49.1324
           15           2      0.4667      0.0067   1408.2825    703.0000     49.1876
           15           3      0.4667      0.0133   1409.2540    703.0000     49.2419
           15           4      0.4667      0.0200   1410.2085    703.0000     49.2955
           15           5      0.4667      0.0267   1411.1453    703.0000     49.3481
           15           6      0.4667      0.0333   1412.0635    703.0000     49.3998
           15           7      0.4667      0.0400   1412.9626    703.0000     49.4505
           15           8      0.4667      0.0467   1413.8420    703.0000     49.5002
           15           9      0.4667      0.0533   1414.7012    703.0000     49.5489
           15          10      0.4667      0.0600   1415.5398    703.0000     49.5965
           15          11      0.4667      0.0667   1416.3573    703.0000     49.6430
           15          12      0.4667      0.0733   1417.1536    703.0000     49.6883
           15          13      0.4667      0.0800   1417.9284    703.0000     49.7325
           15          14      0.4667      0.0867   1418.6817    703.0000     49.7755
           15          15      0.4667      0.0933   1419.4134    703.0000     49.8174
           15          16      0.4667      0.1000   1420.1234    703.0000     49.8581
           15          17      0.4667      0.1067   1420.8121    703.0000     49.8976
           15          18      0.4667      0.1133   1421.4794    703.0000     49.9360
           15          19      0.4667      0.1200   1422.1257    703.0000     49.9732
           15          20      0.4667      0.1267   1422.7514    703.0000     50.0093
           15          21      0.4667      0.1333   1423.3567    703.0000     50.0442
           15          22      0.4667      0.1400   1423.9423    703.0000     50.0781
           15          23      0.4667      0.1467   1424.5087    703.0000     50.1108
           15          24      0.4667      0.1533   1425.0565    703.0000     50.1426
           15          25      0.4667      0.1600   1425.5863    703.0000     50.1733
           15          26      0.4667      0.1667   1426.0989    703.0000     50.2031
           15          27      0.4667      0.1733   1426.5951    703.0000     50.2319
           15          28      0.4667      0.1800   1427.0758    703.0000     50.2599
           15          29      0.4667      0.1867   1427.5418    703.0000     50.2870
           15          30      0.4667      0.1933   1427.9942    703.0000     50.3134
           15          31      0.4667      0.2000   1428.4340    703.0000     50.3390
           16           1      0.5000      0.0000   1407.3114    703.0000     49.1334
           16           2      0.5000      0.0067   1408.3003    703.0000     49.1886
           16           3      0.5000      0.0133   1409.2729    703.0000     49.2430
           16           4      0.5000      0.0200   1410.2284    703.0000     49.2966
           16           5      0.5000      0.0267   1411.1660    703.0000     49.3493
           16           6      0.5000      0.0333   1412.0851    703.0000     49.4010
           16           7      0.5000      0.0400   1412.9850    703.0000     49.4518
           16           8      0.5000      0.0467   1413.8651    703.0000     49.5015
           16           9      0.5000      0.0533   1414.7249    703.0000     49.5502
           16          10      0.5000      0.0600   1415.5639    703.0000     49.5979
           16          11      0.5000      0.0667   1416.3819    703.0000     49.6444
           16          12      0.5000      0.0733   1417.1785    703.0000     49.6897
           16          13      0.5000      0.0800   1417.9535    703.0000     49.7339
           16          14      0.5000      0.0867   1418.7069    703.0000     49.7770
           16          15      0.5000      0.0933   1419.4386    703.0000     49.8189
           16          16      0.5000      0.1000   1420.1486    703.0000     49.8596
           16          17      0.5000      0.1067   1420.8371    703.0000     49.8991
           16          18      0.5000      0.1133   1421.5042    703.0000     49.9374
           16          19      0.5000      0.1200   1422.1502    703.0000     49.9746
           16          20      0.5000      0.1267   1422.7754    703.0000     50.0107
           16          21      0.5000      0.1333   1423.3802    703.0000     50.0456
           16          22      0.5000      0.1400   1423.9652    703.0000     50.0794
           16          23      0.5000      0.1467   1424.5309    703.0000     50.1121
           16          24      0.5000      0.1533   1425.0779    703.0000     50.1438
           16          25      0.5000      0.1600   1425.6068    703.0000     50.1745
           16          26      0.5000      0.1667   1426.1185    703.0000     50.2042
           16          27      0.5000      0.1733   1426.6137    703.0000     50.2330
           16          28      0.5000      0.1800   1427.0933    703.0000     50.2609
           16          29      0.5000      0.1867   1427.5583    703.0000     50.2880
           16          30      0.5000      0.1933   1428.0094    703.0000     50.3143
           16          31      0.5000      0.2000   1428.4479    703.0000     50.3399
           17           1      0.5333      0.0000   1407.2949    703.0000     49.1324
           17           2      0.5333      0.0067   1408.2826    703.0000     49.1876
           17           3      0.5333      0.0133   1409.2541    703.0000     49.2419
           17           4      0.5333      0.0200   1410.2086    703.0000     49.2955
           17           5      0.5333      0.0267   1411.1454    703.0000     49.3481
           17           6      0.5333      0.0333   1412.0636    703.0000     49.3998
           17           7      0.5333      0.0400   1412.9628    703.0000     49.4505
           17           8      0.5333      0.0467   1413.8422    703.0000     49.5002
           17           9      0.5333      0.0533   1414.7014    703.0000     49.5489
           17          10      0.5333      0.0600   1415.5399    703.0000     49.5965
           17          11      0.5333      0.0667   1416.3575    703.0000     49.6430
           17          12      0.5333      0.0733   1417.1538    703.0000     49.6883
           17          13      0.5333      0.0800   1417.9286    703.0000     49.7325
           17          14      0.5333      0.0867   1418.6819    703.0000     49.7756
           17          15      0.5333      0.0933   1419.4135    703.0000     49.8174
           17          16      0.5333      0.1000   1420.1236    703.0000     49.8581
           17          17      0.5333      0.1067   1420.8122    703.0000     49.8977
           17          18      0.5333      0.1133   1421.4795    703.0000     49.9360
           17          19      0.5333      0.1200   1422.1259    703.0000     49.9732
           17          20      0.5333      0.1267   1422.7515    703.0000     50.0093
           17          21      0.5333      0.1333   1423.3569    703.0000     50.0442
           17          22      0.5333      0.1400   1423.9425    703.0000     50.0781
           17          23      0.5333      0.1467   1424.5088    703.0000     50.1108
           17          24      0.5333      0.1533   1425.0566    703.0000     50.1426
           17          25      0.5333      0.1600   1425.5864    703.0000     50.1733
           17          26      0.5333      0.1667   1426.0990    703.0000     50.2031
           17          27      0.5333      0.1733   1426.5952    703.0000     50.2319
           17          28      0.5333      0.1800   1427.0759    703.0000     50.2599
           17          29      0.5333      0.1867   1427.5419    703.0000     50.2870
           17          30      0.5333      0.1933   1427.9943    703.0000     50.3134
           17          31      0.5333      0.2000   1428.4340    703.0000     50.3390
           18           1      0.5667      0.0000   1407.2440    703.0000     49.1296
           18           2      0.5667      0.0067   1408.2282    703.0000     49.1845
           18           3      0.5667      0.0133   1409.1964    703.0000     49.2387
           18           4      0.5667      0.0200   1410.1479    703.0000     49.2920
           18           5      0.5667      0.0267   1411.0819    703.0000     49.3445
           18           6      0.5667      0.0333   1411.9975    703.0000     49.3961
           18           7      0.5667      0.0400   1412.8943    703.0000     49.4467
           18           8      0.5667      0.0467   1413.7717    703.0000     49.4963
           18           9      0.5667      0.0533   1414.6291    703.0000     49.5448
           18          10      0.5667      0.0600   1415.4661    703.0000     49.5923
           18          11      0.5667      0.0667   1416.2824    703.0000     49.6387
           18          12      0.5667      0.0733   1417.0777    703.0000     49.6840
           18          13      0.5667      0.0800   1417.8519    703.0000     49.7281
           18          14      0.5667      0.0867   1418.6048    703.0000     49.7711
           18          15      0.5667      0.0933   1419.3363    703.0000     49.8130
           18          16      0.5667      0.1000   1420.0466    703.0000     49.8537
           18          17      0.5667      0.1067   1420.7356    703.0000     49.8933
           18          18      0.5667      0.1133   1421.4037    703.0000     49.9317
           18          19      0.5667      0.1200   1422.0511    703.0000     49.9689
           18          20      0.5667      0.1267   1422.6780    703.0000     50.0051
           18          21      0.5667      0.1333   1423.2850    703.0000     50.0401
           18          22      0.5667      0.1400   1423.8725    703.0000     50.0740
           18          23      0.5667      0.1467   1424.4409    703.0000     50.1069
           18          24      0.5667      0.1533   1424.9911    703.0000     50.1388
           18          25      0.5667      0.1600   1425.5235    703.0000     50.1697
           18          26      0.5667      0.1667   1426.0390    703.0000     50.1996
           18          27      0.5667      0.1733   1426.5383    703.0000     50.2286
           18          28      0.5667      0.1800   1427.0222    703.0000     50.2568
           18          29      0.5667      0.1867   1427.4918    703.0000     50.2841
           18          30      0.5667      0.1933   1427.9478    703.0000     50.3107
           18          31      0.5667      0.2000   1428.3914    703.0000     50.3366
           19           1      0.6000      0.0000   1407.1552    703.0000     49.1246
           19           2      0.6000      0.0067   1408.1334    703.0000     49.1792
           19           3      0.6000      0.0133   1409.0959    703.0000     49.2331
           19           4      0.6000      0.0200   1410.0421    703.0000     49.2861
           19           5      0.6000      0.0267   1410.9711    703.0000     49.3383
           19           6      0.6000      0.0333   1411.8823    703.0000     49.3896
           19           7      0.6000      0.0400   1412.7750    703.0000     49.4399
           19           8      0.6000      0.0467   1413.6488    703.0000     49.4893
           19           9      0.6000      0.0533   1414.5030    703.0000     49.5377
           19          10      0.6000      0.0600   1415.3374    703.0000     49.5850
           19          11      0.6000      0.0667   1416.1515    703.0000     49.6312
           19          12      0.6000      0.0733   1416.9451    703.0000     49.6764
           19          13      0.6000      0.0800   1417.7181    703.0000     49.7205
           19          14      0.6000      0.0867   1418.4702    703.0000     49.7635
           19          15      0.6000      0.0933   1419.2016    703.0000     49.8053
           19          16      0.6000      0.1000   1419.9122    703.0000     49.8460
           19          17      0.6000      0.1067   1420.6020    703.0000     49.8856
           19          18      0.6000      0.1133   1421.2714    703.0000     49.9240
           19          19      0.6000      0.1200   1421.9206    703.0000     49.9614
           19          20      0.6000      0.1267   1422.5498    703.0000     49.9977
           19          21      0.6000      0.1333   1423.1596    703.0000     50.0328
           19          22      0.6000      0.1400   1423.7503    703.0000     50.0670
           19          23      0.6000      0.1467   1424.3225    703.0000     50.1001
           19          24      0.6000      0.1533   1424.8767    703.0000     50.1322
           19          25      0.6000      0.1600   1425.4137    703.0000     50.1633
           19          26      0.6000      0.1667   1425.9341    703.0000     50.1935
           19          27      0.6000      0.1733   1426.4388    703.0000     50.2228
           19          28      0.6000      0.1800   1426.9285    703.0000     50.2513
           19          29      0.6000      0.1867   1427.4042    703.0000     50.2790
           19          30      0.6000      0.1933   1427.8666    703.0000     50.3059
           19          31      0.6000      0.2000   1428.3169    703.0000     50.3322
           20           1      0.6333      0.0000   1407.0227    703.0000     49.1173
           20           2      0.6333      0.0067   1407.9918    703.0000     49.1713
           20           3      0.6333      0.0133   1408.9459    703.0000     49.2247
           20           4      0.6333      0.0200   1409.8841    703.0000     49.2772
           20           5      0.6333      0.0267   1410.8057    703.0000     49.3290
           20           6      0.6333      0.0333   1411.7102    703.0000     49.3799
           20           7      0.6333      0.0400   1412.5969    703.0000     49.4299
           20           8      0.6333      0.0467   1413.4652    703.0000     49.4789
           20           9      0.6333      0.0533   1414.3147    703.0000     49.5270
           20          10      0.6333      0.0600   1415.1451    703.0000     49.5741
           20          11      0.6333      0.0667   1415.9559    703.0000     49.6201
           20          12      0.6333      0.0733   1416.7470    703.0000     49.6651
           20          13      0.6333      0.0800   1417.5181    703.0000     49.7091
           20          14      0.6333      0.0867   1418.2692    703.0000     49.7520
           20          15      0.6333      0.0933   1419.0002    703.0000     49.7938
           20          16      0.6333      0.1000   1419.7112    703.0000     49.8345
           20          17      0.6333      0.1067   1420.4023    703.0000     49.8741
           20          18      0.6333      0.1133   1421.0736    703.0000     49.9127
           20          19      0.6333      0.1200   1421.7254    703.0000     49.9502
           20          20      0.6333      0.1267   1422.3581    703.0000     49.9866
           20          21      0.6333      0.1333   1422.9719    703.0000     50.0220
           20          22      0.6333      0.1400   1423.5674    703.0000     50.0564
           20          23      0.6333      0.1467   1424.1451    703.0000     50.0898
           20          24      0.6333      0.1533   1424.7056    703.0000     50.1222
           20          25      0.6333      0.1600   1425.2494    703.0000     50.1538
           20          26      0.6333      0.1667   1425.7773    703.0000     50.1844
           20          27      0.6333      0.1733   1426.2899    703.0000     50.2142
           20          28      0.6333      0.1800   1426.7882    703.0000     50.2431
           20          29      0.6333      0.1867   1427.2730    703.0000     50.2714
           20          30      0.6333      0.1933   1427.7451    703.0000     50.2989
           20          31      0.6333      0.2000   1428.2054    703.0000     50.3257
           21           1      0.6667      0.0000   1406.8379    703.0000     49.1070
           21           2      0.6667      0.0067   1407.7943    703.0000     49.1603
           21           3      0.6667      0.0133   1408.7365    703.0000     49.2130
           21           4      0.6667      0.0200   1409.6636    703.0000     49.2649
           21           5      0.6667      0.0267   1410.5750    703.0000     49.3160
           21           6      0.6667      0.0333   1411.4700    703.0000     49.3664
           21           7      0.6667      0.0400   1412.3482    703.0000     49.4158
           21           8      0.6667      0.0467   1413.2089    703.0000     49.4644
           21           9      0.6667      0.0533   1414.0518    703.0000     49.5121
           21          10      0.6667      0.0600   1414.8765    703.0000     49.5588
           21          11      0.6667      0.0667   1415.6827    703.0000     49.6046
           21          12      0.6667      0.0733   1416.4701    703.0000     49.6494
           21          13      0.6667      0.0800   1417.2386    703.0000     49.6932
           21          14      0.6667      0.0867   1417.9882    703.0000     49.7359
           21          15      0.6667      0.0933   1418.7187    703.0000     49.7777
           21          16      0.6667      0.1000   1419.4302    703.0000     49.8184
           21          17      0.6667      0.1067   1420.1229    703.0000     49.8581
           21          18      0.6667      0.1133   1420.7968    703.0000     49.8968
           21          19      0.6667      0.1200   1421.4523    703.0000     49.9345
           21          20      0.6667      0.1267   1422.0897    703.0000     49.9711
           21          21      0.6667      0.1333   1422.7092    703.0000     50.0069
           21          22      0.6667      0.1400   1423.3115    703.0000     50.0416
           21          23      0.6667      0.1467   1423.8968    703.0000     50.0754
           21          24      0.6667      0.1533   1424.4659    703.0000     50.1084
           21          25      0.6667      0.1600   1425.0192    703.0000     50.1404
           21          26      0.6667      0.1667   1425.5574    703.0000     50.1716
           21          27      0.6667      0.1733   1426.0814    703.0000     50.2020
           21          28      0.6667      0.1800   1426.5917    703.0000     50.2317
           21          29      0.6667      0.1867   1427.0892    703.0000     50.2607
           21          30      0.6667      0.1933   1427.5747    703.0000     50.2889
           21          31      0.6667      0.2000   1428.0492    703.0000     50.3166
           22           1      0.7000      0.0000   1406.5891    703.0000     49.0931
           22           2      0.7000      0.0067   1407.5285    703.0000     49.1455
           22           3      0.7000      0.0133   1408.4546    703.0000     49.1972
           22           4      0.7000      0.0200   1409.3668    703.0000     49.2482
           22           5      0.7000      0.0267   1410.2643    703.0000     49.2986
           22           6      0.7000      0.0333   1411.1466    703.0000     49.3482
           22           7      0.7000      0.0400   1412.0132    703.0000     49.3970
           22           8      0.7000      0.0467   1412.8637    703.0000     49.4449
           22           9      0.7000      0.0533   1413.6975    703.0000     49.4921
           22          10      0.7000      0.0600   1414.5145    703.0000     49.5383
           22          11      0.7000      0.0667   1415.3143    703.0000     49.5837
           22          12      0.7000      0.0733   1416.0967    703.0000     49.6281
           22          13      0.7000      0.0800   1416.8616    703.0000     49.6717
           22          14      0.7000      0.0867   1417.6089    703.0000     49.7143
           22          15      0.7000      0.0933   1418.3386    703.0000     49.7559
           22          16      0.7000      0.1000   1419.0507    703.0000     49.7967
           22          17      0.7000      0.1067   1419.7454    703.0000     49.8364
           22          18      0.7000      0.1133   1420.4228    703.0000     49.8753
           22          19      0.7000      0.1200   1421.0831    703.0000     49.9132
           22          20      0.7000      0.1267   1421.7267    703.0000     49.9502
           22          21      0.7000      0.1333   1422.3538    703.0000     49.9864
           22          22      0.7000      0.1400   1422.9650    703.0000     50.0216
           22          23      0.7000      0.1467   1423.5606    703.0000     50.0560
           22          24      0.7000      0.1533   1424.1412    703.0000     50.0896
           22          25      0.7000      0.1600   1424.7074    703.0000     50.1223
           22          26      0.7000      0.1667   1425.2597    703.0000     50.1544
           22          27      0.7000      0.1733   1425.7987    703.0000     50.1856
           22          28      0.7000      0.1800   1426.3253    703.0000     50.2162
           22          29      0.7000      0.1867   1426.8400    703.0000     50.2462
           22          30      0.7000      0.1933   1427.3438    703.0000     50.2755
           22          31      0.7000      0.2000   1427.8374    703.0000     50.3042
           23           1      0.7333      0.0000   1406.2615    703.0000     49.0749
           23           2      0.7333      0.0067   1407.1784    703.0000     49.1259
           23           3      0.7333      0.0133   1408.0834    703.0000     49.1764
           23           4      0.7333      0.0200   1408.9758    703.0000     49.2263
           23           5      0.7333      0.0267   1409.8549    703.0000     49.2756
           23           6      0.7333      0.0333   1410.7203    703.0000     49.3242
           23           7      0.7333      0.0400   1411.5716    703.0000     49.3721
           23           8      0.7333      0.0467   1412.4083    703.0000     49.4192
           23           9      0.7333      0.0533   1413.2300    703.0000     49.4656
           23          10      0.7333      0.0600   1414.0366    703.0000     49.5112
           23          11      0.7333      0.0667   1414.8277    703.0000     49.5561
           23          12      0.7333      0.0733   1415.6033    703.0000     49.6001
           23          13      0.7333      0.0800   1416.3631    703.0000     49.6433
           23          14      0.7333      0.0867   1417.1072    703.0000     49.6857
           23          15      0.7333      0.0933   1417.8355    703.0000     49.7272
           23          16      0.7333      0.1000   1418.5481    703.0000     49.7679
           23          17      0.7333      0.1067   1419.2452    703.0000     49.8078
           23          18      0.7333      0.1133   1419.9268    703.0000     49.8468
           23          19      0.7333      0.1200   1420.5933    703.0000     49.8851
           23          20      0.7333      0.1267   1421.2449    703.0000     49.9225
           23          21      0.7333      0.1333   1421.8819    703.0000     49.9592
           23          22      0.7333      0.1400   1422.5047    703.0000     49.9951
           23          23      0.7333      0.1467   1423.1138    703.0000     50.0302
           23          24      0.7333      0.1533   1423.7096    703.0000     50.0646
           23          25      0.7333      0.1600   1424.2926    703.0000     50.0983
           23          26      0.7333      0.1667   1424.8633    703.0000     50.1314
           23          27      0.7333      0.1733   1425.4225    703.0000     50.1638
           23          28      0.7333      0.1800   1425.9705    703.0000     50.1956
           23          29      0.7333      0.1867   1426.5082    703.0000     50.2269
           23          30      0.7333      0.1933   1427.0363    703.0000     50.2576
           23          31      0.7333      0.2000   1427.5553    703.0000     50.2878
           24           1      0.7667      0.0000   1405.8363    703.0000     49.0512
           24           2      0.7667      0.0067   1406.7242    703.0000     49.1006
           24           3      0.7667      0.0133   1407.6016    703.0000     49.1495
           24           4      0.7667      0.0200   1408.4681    703.0000     49.1979
           24           5      0.7667      0.0267   1409.3232    703.0000     49.2458
           24           6      0.7667      0.0333   1410.1664    703.0000     49.2931
           24           7      0.7667      0.0400   1410.9974    703.0000     49.3398
           24           8      0.7667      0.0467   1411.8159    703.0000     49.3858
           24           9      0.7667      0.0533   1412.6216    703.0000     49.4313
           24          10      0.7667      0.0600   1413.4142    703.0000     49.4760
           24          11      0.7667      0.0667   1414.1936    703.0000     49.5201
           24          12      0.7667      0.0733   1414.9596    703.0000     49.5636
           24          13      0.7667      0.0800   1415.7123    703.0000     49.6063
           24          14      0.7667      0.0867   1416.4516    703.0000     49.6483
           24          15      0.7667      0.0933   1417.1776    703.0000     49.6897
           24          16      0.7667      0.1000   1417.8903    703.0000     49.7303
           24          17      0.7667      0.1067   1418.5899    703.0000     49.7703
           24          18      0.7667      0.1133   1419.2766    703.0000     49.8096
           24          19      0.7667      0.1200   1419.9506    703.0000     49.8482
           24          20      0.7667      0.1267   1420.6121    703.0000     49.8862
           24          21      0.7667      0.1333   1421.2616    703.0000     49.9235
           24          22      0.7667      0.1400   1421.8993    703.0000     49.9602
           24          23      0.7667      0.1467   1422.5256    703.0000     49.9963
           24          24      0.7667      0.1533   1423.1410    703.0000     50.0318
           24          25      0.7667      0.1600   1423.7458    703.0000     50.0667
           24          26      0.7667      0.1667   1424.3406    703.0000     50.1011
           24          27      0.7667      0.1733   1424.9259    703.0000     50.1350
           24          28      0.7667      0.1800   1425.5022    703.0000     50.1684
           24          29      0.7667      0.1867   1426.0701    703.0000     50.2014
           24          30      0.7667      0.1933   1426.6300    703.0000     50.2339
           24          31      0.7667      0.2000   1427.1827    703.0000     50.2661
           25           1      0.8000      0.0000   1405.2909    703.0000     49.0209
           25           2      0.8000      0.0067   1406.1413    703.0000     49.0682
           25           3      0.8000      0.0133   1406.9833    703.0000     49.1151
           25           4      0.8000      0.0200   1407.8164    703.0000     49.1615
           25           5      0.8000      0.0267   1408.6402    703.0000     49.2076
           25           6      0.8000      0.0333   1409.4545    703.0000     49.2532
           25           7      0.8000      0.0400   1410.2589    703.0000     49.2983
           25           8      0.8000      0.0467   1411.0533    703.0000     49.3429
           25           9      0.8000      0.0533   1411.8374    703.0000     49.3871
           25          10      0.8000      0.0600   1412.6112    703.0000     49.4307
           25          11      0.8000      0.0667   1413.3746    703.0000     49.4738
           25          12      0.8000      0.0733   1414.1275    703.0000     49.5164
           25          13      0.8000      0.0800   1414.8699    703.0000     49.5585
           25          14      0.8000      0.0867   1415.6020    703.0000     49.6000
           25          15      0.8000      0.0933   1416.3238    703.0000     49.6411
           25          16      0.8000      0.1000   1417.0355    703.0000     49.6816
           25          17      0.8000      0.1067   1417.7372    703.0000     49.7216
           25          18      0.8000      0.1133   1418.4293    703.0000     49.7611
           25          19      0.8000      0.1200   1419.1119    703.0000     49.8002
           25          20      0.8000      0.1267   1419.7854    703.0000     49.8387
           25          21      0.8000      0.1333   1420.4500    703.0000     49.8769
           25          22      0.8000      0.1400   1421.1061    703.0000     49.9145
           25          23      0.8000      0.1467   1421.7541    703.0000     49.9518
           25          24      0.8000      0.1533   1422.3943    703.0000     49.9887
           25          25      0.8000      0.1600   1423.0271    703.0000     50.0252
           25          26      0.8000      0.1667   1423.6530    703.0000     50.0613
           25          27      0.8000      0.1733   1424.2722    703.0000     50.0972
           25          28      0.8000      0.1800   1424.8852    703.0000     50.1327
           25          29      0.8000      0.1867   1425.4925    703.0000     50.1679
           25          30      0.8000      0.1933   1426.0944    703.0000     50.2028
           25          31      0.8000      0.2000   1426.6913    703.0000     50.2375
           26           1      0.8333      0.0000   1404.5987    703.0000     48.9825
           26           2      0.8333      0.0067   1405.4015    703.0000     49.0271
           26           3      0.8333      0.0133   1406.1981    703.0000     49.0713
           26           4      0.8333      0.0200   1406.9882    703.0000     49.1153
           26           5      0.8333      0.0267   1407.7717    703.0000     49.1590
           26           6      0.8333      0.0333   1408.5482    703.0000     49.2024
           26           7      0.8333      0.0400   1409.3177    703.0000     49.2455
           26           8      0.8333      0.0467   1410.0802    703.0000     49.2882
           26           9      0.8333      0.0533   1410.8355    703.0000     49.3307
           26          10      0.8333      0.0600   1411.5836    703.0000     49.3728
           26          11      0.8333      0.0667   1412.3247    703.0000     49.4145
           26          12      0.8333      0.0733   1413.0588    703.0000     49.4560
           26          13      0.8333      0.0800   1413.7860    703.0000     49.4971
           26          14      0.8333      0.0867   1414.5067    703.0000     49.5379
           26          15      0.8333      0.0933   1415.2209    703.0000     49.5784
           26          16      0.8333      0.1000   1415.9290    703.0000     49.6186
           26          17      0.8333      0.1067   1416.6313    703.0000     49.6586
           26          18      0.8333      0.1133   1417.3280    703.0000     49.6982
           26          19      0.8333      0.1200   1418.0195    703.0000     49.7377
           26          20      0.8333      0.1267   1418.7062    703.0000     49.7769
           26          21      0.8333      0.1333   1419.3885    703.0000     49.8160
           26          22      0.8333      0.1400   1420.0666    703.0000     49.8549
           26          23      0.8333      0.1467   1420.7411    703.0000     49.8936
           26          24      0.8333      0.1533   1421.4121    703.0000     49.9321
           26          25      0.8333      0.1600   1422.0801    703.0000     49.9706
           26          26      0.8333      0.1667   1422.7454    703.0000     50.0089
           26          27      0.8333      0.1733   1423.4083    703.0000     50.0472
           26          28      0.8333      0.1800   1424.0690    703.0000     50.0854
           26          29      0.8333      0.1867   1424.7277    703.0000     50.1235
           26          30      0.8333      0.1933   1425.3848    703.0000     50.1616
           26          31      0.8333      0.2000   1426.0402    703.0000     50.1997
           27           1      0.8667      0.0000   1403.7299    703.0000     48.9344
           27           2      0.8667      0.0067   1404.4728    703.0000     48.9755
           27           3      0.8667      0.0133   1405.2120    703.0000     49.0165
           27           4      0.8667      0.0200   1405.9473    703.0000     49.0574
           27           5      0.8667      0.0267   1406.6788    703.0000     49.0981
           27           6      0.8667      0.0333   1407.4063    703.0000     49.1386
           27           7      0.8667      0.0400   1408.1299    703.0000     49.1790
           27           8      0.8667      0.0467   1408.8498    703.0000     49.2193
           27           9      0.8667      0.0533   1409.5660    703.0000     49.2594
           27          10      0.8667      0.0600   1410.2787    703.0000     49.2994
           27          11      0.8667      0.0667   1410.9883    703.0000     49.3393
           27          12      0.8667      0.0733   1411.6949    703.0000     49.3790
           27          13      0.8667      0.0800   1412.3991    703.0000     49.4187
           27          14      0.8667      0.0867   1413.1010    703.0000     49.4583
           27          15      0.8667      0.0933   1413.8013    703.0000     49.4979
           27          16      0.8667      0.1000   1414.5003    703.0000     49.5375
           27          17      0.8667      0.1067   1415.1986    703.0000     49.5771
           27          18      0.8667      0.1133   1415.8967    703.0000     49.6168
           27          19      0.8667      0.1200   1416.5951    703.0000     49.6565
           27          20      0.8667      0.1267   1417.2944    703.0000     49.6963
           27          21      0.8667      0.1333   1417.9951    703.0000     49.7363
           27          22      0.8667      0.1400   1418.6977    703.0000     49.7765
           27          23      0.8667      0.1467   1419.4028    703.0000     49.8168
           27          24      0.8667      0.1533   1420.1106    703.0000     49.8574
           27          25      0.8667      0.1600   1420.8218    703.0000     49.8982
           27          26      0.8667      0.1667   1421.5364    703.0000     49.9393
           27          27      0.8667      0.1733   1422.2548    703.0000     49.9807
           27          28      0.8667      0.1800   1422.9771    703.0000     50.0223
           27          29      0.8667      0.1867   1423.7033    703.0000     50.0643
           27          30      0.8667      0.1933   1424.4334    703.0000     50.1065
           27          31      0.8667      0.2000   1425.1670    703.0000     50.1490
           28           1      0.9000      0.0000   1402.6551    703.0000     48.8750
           28           2      0.9000      0.0067   1403.3236    703.0000     48.9119
           28           3      0.9000      0.0133   1403.9908    703.0000     48.9488
           28           4      0.9000      0.0200   1404.6568    703.0000     48.9857
           28           5      0.9000      0.0267   1405.3217    703.0000     49.0226
           28           6      0.9000      0.0333   1405.9856    703.0000     49.0595
           28           7      0.9000      0.0400   1406.6489    703.0000     49.0964
           28           8      0.9000      0.0467   1407.3117    703.0000     49.1334
           28           9      0.9000      0.0533   1407.9746    703.0000     49.1704
           28          10      0.9000      0.0600   1408.6378    703.0000     49.2074
           28          11      0.9000      0.0667   1409.3019    703.0000     49.2446
           28          12      0.9000      0.0733   1409.9676    703.0000     49.2819
           28          13      0.9000      0.0800   1410.6354    703.0000     49.3194
           28          14      0.9000      0.0867   1411.3061    703.0000     49.3571
           28          15      0.9000      0.0933   1411.9804    703.0000     49.3951
           28          16      0.9000      0.1000   1412.6593    703.0000     49.4334
           28          17      0.9000      0.1067   1413.3435    703.0000     49.4720
           28          18      0.9000      0.1133   1414.0340    703.0000     49.5111
           28          19      0.9000      0.1200   1414.7318    703.0000     49.5506
           28          20      0.9000      0.1267   1415.4379    703.0000     49.5907
           28          21      0.9000      0.1333   1416.1532    703.0000     49.6313
           28          22      0.9000      0.1400   1416.8786    703.0000     49.6726
           28          23      0.9000      0.1467   1417.6151    703.0000     49.7146
           28          24      0.9000      0.1533   1418.3634    703.0000     49.7573
           28          25      0.9000      0.1600   1419.1243    703.0000     49.8009
           28          26      0.9000      0.1667   1419.8983    703.0000     49.8452
           28          27      0.9000      0.1733   1420.6858    703.0000     49.8904
           28          28      0.9000      0.1800   1421.4869    703.0000     49.9364
           28          29      0.9000      0.1867   1422.3016    703.0000     49.9833
           28          30      0.9000      0.1933   1423.1294    703.0000     50.0311
           28          31      0.9000      0.2000   1423.9696    703.0000     50.0796
           29           1      0.9333      0.0000   1401.3500    703.0000     48.8031
           29           2      0.9333      0.0067   1401.9276    703.0000     48.8349
           29           3      0.9333      0.0133   1402.5060    703.0000     48.8668
           29           4      0.9333      0.0200   1403.0854    703.0000     48.8988
           29           5      0.9333      0.0267   1403.6660    703.0000     48.9309
           29           6      0.9333      0.0333   1404.2482    703.0000     48.9631
           29           7      0.9333      0.0400   1404.8325    703.0000     48.9955
           29           8      0.9333      0.0467   1405.4192    703.0000     49.0280
           29           9      0.9333      0.0533   1406.0090    703.0000     49.0608
           29          10      0.9333      0.0600   1406.6026    703.0000     49.0939
           29          11      0.9333      0.0667   1407.2009    703.0000     49.1272
           29          12      0.9333      0.0733   1407.8047    703.0000     49.1609
           29          13      0.9333      0.0800   1408.4151    703.0000     49.1950
           29          14      0.9333      0.0867   1409.0331    703.0000     49.2296
           29          15      0.9333      0.0933   1409.6602    703.0000     49.2647
           29          16      0.9333      0.1000   1410.2976    703.0000     49.3005
           29          17      0.9333      0.1067   1410.9468    703.0000     49.3369
           29          18      0.9333      0.1133   1411.6096    703.0000     49.3742
           29          19      0.9333      0.1200   1412.2875    703.0000     49.4124
           29          20      0.9333      0.1267   1412.9825    703.0000     49.4516
           29          21      0.9333      0.1333   1413.6964    703.0000     49.4920
           29          22      0.9333      0.1400   1414.4312    703.0000     49.5336
           29          23      0.9333      0.1467   1415.1890    703.0000     49.5766
           29          24      0.9333      0.1533   1415.9715    703.0000     49.6210
           29          25      0.9333      0.1600   1416.7808    703.0000     49.6671
           29          26      0.9333      0.1667   1417.6185    703.0000     49.7148
           29          27      0.9333      0.1733   1418.4859    703.0000     49.7644
           29          28      0.9333      0.1800   1419.3841    703.0000     49.8157
           29          29      0.9333      0.1867   1420.3135    703.0000     49.8690
           29          30      0.9333      0.1933   1421.2738    703.0000     49.9242
           29          31      0.9333      0.2000   1422.2637    703.0000     49.9812
           30           1      0.9667      0.0000   1399.8031    703.0000     48.7181
           30           2      0.9667      0.0067   1400.2724    703.0000     48.7439
           30           3      0.9667      0.0133   1400.7437    703.0000     48.7698
           30           4      0.9667      0.0200   1401.2171    703.0000     48.7958
           30           5      0.9667      0.0267   1401.6932    703.0000     48.8220
           30           6      0.9667      0.0333   1402.1722    703.0000     48.8484
           30           7      0.9667      0.0400   1402.6547    703.0000     48.8750
           30           8      0.9667      0.0467   1403.1413    703.0000     48.9019
           30           9      0.9667      0.0533   1403.6328    703.0000     48.9290
           30          10      0.9667      0.0600   1404.1301    703.0000     48.9566
           30          11      0.9667      0.0667   1404.6341    703.0000     48.9845
           30          12      0.9667      0.0733   1405.1460    703.0000     49.0129
           30          13      0.9667      0.0800   1405.6671    703.0000     49.0418
           30          14      0.9667      0.0867   1406.1990    703.0000     49.0714
           30          15      0.9667      0.0933   1406.7433    703.0000     49.1017
           30          16      0.9667      0.1000   1407.3020    703.0000     49.1328
           30          17      0.9667      0.1067   1407.8773    703.0000     49.1649
           30          18      0.9667      0.1133   1408.4716    703.0000     49.1981
           30          19      0.9667      0.1200   1409.0877    703.0000     49.2326
           30          20      0.9667      0.1267   1409.7287    703.0000     49.2685
           30          21      0.9667      0.1333   1410.3981    703.0000     49.3061
           30          22      0.9667      0.1400   1411.0997    703.0000     49.3455
           30          23      0.9667      0.1467   1411.8378    703.0000     49.3871
           30          24      0.9667      0.1533   1412.6172    703.0000     49.4310
           30          25      0.9667      0.1600   1413.4428    703.0000     49.4777
           30          26      0.9667      0.1667   1414.3201    703.0000     49.5273
           30          27      0.9667      0.1733   1415.2547    703.0000     49.5803
           30          28      0.9667      0.1800   1416.2522    703.0000     49.6370
           30          29      0.9667      0.1867   1417.3175    703.0000     49.6976
           30          30      0.9667      0.1933   1418.4543    703.0000     49.7625
           30          31      0.9667      0.2000   1419.6639    703.0000     49.8318
           31           1      1.0000      0.0000   1398.0308    703.0000     48.6212
           31           2      1.0000      0.0067   1398.3754    703.0000     48.6400
           31           3      1.0000      0.0133   1398.7217    703.0000     48.6589
           31           4      1.0000      0.0200   1399.0702    703.0000     48.6780
           31           5      1.0000      0.0267   1399.4210    703.0000     48.6972
           31           6      1.0000      0.0333   1399.7746    703.0000     48.7166
           31           7      1.0000      0.0400   1400.1313    703.0000     48.7361
           31           8      1.0000      0.0467   1400.4917    703.0000     48.7559
           31           9      1.0000      0.0533   1400.8565    703.0000     48.7760
           31          10      1.0000      0.0600   1401.2264    703.0000     48.7963
           31          11      1.0000      0.0667   1401.6023    703.0000     48.8170
           31          12      1.0000      0.0733   1401.9851    703.0000     48.8381
           31          13      1.0000      0.0800   1402.3762    703.0000     48.8596
           31          14      1.0000      0.0867   1402.7769    703.0000     48.8817
           31          15      1.0000      0.0933   1403.1888    703.0000     48.9045
           31          16      1.0000      0.1000   1403.6137    703.0000     48.9280
           31          17      1.0000      0.1067   1404.0539    703.0000     48.9523
           31          18      1.0000      0.1133   1404.5118    703.0000     48.9777
           31          19      1.0000      0.1200   1404.9906    703.0000     49.0043
           31          20      1.0000      0.1267   1405.4937    703.0000     49.0322
           31          21      1.0000      0.1333   1406.0256    703.0000     49.0617
           31          22      1.0000      0.1400   1406.5914    703.0000     49.0932
           31          23      1.0000      0.1467   1407.1975    703.0000     49.1270
           31          24      1.0000      0.1533   1407.8519    703.0000     49.1635
           31          25      1.0000      0.1600   1408.5645    703.0000     49.2033
           31          26      1.0000      0.1667   1409.3480    703.0000     49.2472
           31          27      1.0000      0.1733   1410.2189    703.0000     49.2960
           31          28      1.0000      0.1800   1411.1983    703.0000     49.3511
           31          29      1.0000      0.1867   1412.3148    703.0000     49.4140
           31          30      1.0000      0.1933   1413.6061    703.0000     49.4869
           31          31      1.0000      0.2000   1415.1236    703.0000     49.5729
