 ====================================================================================
               Transient state solution for a 2D rectangular plate
                    for applications in steel reheating
                 e.g. Reheating furnaces for rolling processing
 ====================================================================================
 Author: Dickson Alves de Souza

 Based on lectures by professor Roberto Parreiras Tavares

 and book Numerical Heat Transfer and Fluid Flow
 by Suhas V. Patankar (1980)

 Federal University of Minas Gerais (UFMG)
 October 26th, 2017
 ====================================================================================
                              Input parameters:

 Lenght in X direction (meters):           1.0000
 Lenght in Y direction (meters):           0.2000
 Nodes in X direction:                         31
 Nodes in Y direction:                         31
 ====================================================================================

                       STAGE                1/  5
                       START Time:         0.0000
                       END Time:        1140.0000
                       Iterations:             2208

 ====================================================================================
 Temperature of fluid at left face (T left):             1223.1500
 Temperature of fluid at right face (T right):           1223.1500
 Temperature of fluid at bottom face (T bottom):         1223.1500
 Temperature of fluid at top face (T top):               1223.1500
 ------------------------------------------------------------------------------------
 Heat transfer coefficient at left face (H left):          50.0000
 Heat transfer coefficient at right face (H right):        50.0000
 Heat transfer coefficient at bottom face (H bottom):       8.0000
 Heat transfer coefficient at top face (H top):           150.0000
 ====================================================================================


 ====================================================================================

                       STAGE                2/  5
                       START Time:      1140.0000
                       END Time:        3060.0000
                       Iterations:             2208

 ====================================================================================
 Temperature of fluid at left face (T left):             1423.1500
 Temperature of fluid at right face (T right):           1423.1500
 Temperature of fluid at bottom face (T bottom):         1423.1500
 Temperature of fluid at top face (T top):               1423.1500
 ------------------------------------------------------------------------------------
 Heat transfer coefficient at left face (H left):          50.0000
 Heat transfer coefficient at right face (H right):        50.0000
 Heat transfer coefficient at bottom face (H bottom):       8.0000
 Heat transfer coefficient at top face (H top):           150.0000
 ====================================================================================


 ====================================================================================

                       STAGE                3/  5
                       START Time:      3060.0000
                       END Time:        4980.0000
                       Iterations:             2208

 ====================================================================================
 Temperature of fluid at left face (T left):             1513.1500
 Temperature of fluid at right face (T right):           1513.1500
 Temperature of fluid at bottom face (T bottom):         1513.1500
 Temperature of fluid at top face (T top):               1513.1500
 ------------------------------------------------------------------------------------
 Heat transfer coefficient at left face (H left):          50.0000
 Heat transfer coefficient at right face (H right):        50.0000
 Heat transfer coefficient at bottom face (H bottom):       8.0000
 Heat transfer coefficient at top face (H top):           150.0000
 ====================================================================================


 ====================================================================================

                       STAGE                4/  5
                       START Time:      4980.0000
                       END Time:        8400.0000
                       Iterations:             2208

 ====================================================================================
 Temperature of fluid at left face (T left):             1503.1500
 Temperature of fluid at right face (T right):           1503.1500
 Temperature of fluid at bottom face (T bottom):         1503.1500
 Temperature of fluid at top face (T top):               1523.1500
 ------------------------------------------------------------------------------------
 Heat transfer coefficient at left face (H left):          50.0000
 Heat transfer coefficient at right face (H right):        50.0000
 Heat transfer coefficient at bottom face (H bottom):       8.0000
 Heat transfer coefficient at top face (H top):           150.0000
 ====================================================================================


 ====================================================================================

                       STAGE                5/  5
                       START Time:      8400.0000
                       END Time:       18400.0000
                       Iterations:             2208

 ====================================================================================
 Temperature of fluid at left face (T left):             1393.1500
 Temperature of fluid at right face (T right):           1393.1500
 Temperature of fluid at bottom face (T bottom):         1393.1500
 Temperature of fluid at top face (T top):               1433.1500
 ------------------------------------------------------------------------------------
 Heat transfer coefficient at left face (H left):          50.0000
 Heat transfer coefficient at right face (H right):        50.0000
 Heat transfer coefficient at bottom face (H bottom):       8.0000
 Heat transfer coefficient at top face (H top):           150.0000
 ====================================================================================


 SOLUTION of LINEAR SYSTEM: TDMA (tri-diagonal matrix algorithm)
      ADI approach employed in solution.
 Tolerance:       0.0010

 ====================================================================================
                    Calculation Results
 Current time:    17000.000000000000       seconds
 Maximum Temperature :    1425.3433700820383
 Minimum Temperature :    1396.9677994965830
 Average(algebraic, non-weigthed) Temperature :    1411.8831780975095
 ====================================================================================
            I           J        X(m)        Y(m)        T(K)  Cp(J/kg.K) K(W/sq-m.K)
 ====================================================================================
            1           1      0.0000      0.0000   1396.9678    703.0000     48.5632
            1           2      0.0000      0.0067   1397.2395    703.0000     48.5780
            1           3      0.0000      0.0133   1397.5175    703.0000     48.5932
            1           4      0.0000      0.0200   1397.8021    703.0000     48.6087
            1           5      0.0000      0.0267   1398.0940    703.0000     48.6246
            1           6      0.0000      0.0333   1398.3937    703.0000     48.6410
            1           7      0.0000      0.0400   1398.7018    703.0000     48.6578
            1           8      0.0000      0.0467   1399.0191    703.0000     48.6752
            1           9      0.0000      0.0533   1399.3464    703.0000     48.6931
            1          10      0.0000      0.0600   1399.6845    703.0000     48.7116
            1          11      0.0000      0.0667   1400.0345    703.0000     48.7308
            1          12      0.0000      0.0733   1400.3975    703.0000     48.7508
            1          13      0.0000      0.0800   1400.7746    703.0000     48.7715
            1          14      0.0000      0.0867   1401.1675    703.0000     48.7931
            1          15      0.0000      0.0933   1401.5776    703.0000     48.8156
            1          16      0.0000      0.1000   1402.0069    703.0000     48.8393
            1          17      0.0000      0.1067   1402.4574    703.0000     48.8641
            1          18      0.0000      0.1133   1402.9318    703.0000     48.8903
            1          19      0.0000      0.1200   1403.4329    703.0000     48.9180
            1          20      0.0000      0.1267   1403.9643    703.0000     48.9474
            1          21      0.0000      0.1333   1404.5301    703.0000     48.9787
            1          22      0.0000      0.1400   1405.1354    703.0000     49.0123
            1          23      0.0000      0.1467   1405.7866    703.0000     49.0485
            1          24      0.0000      0.1533   1406.4912    703.0000     49.0876
            1          25      0.0000      0.1600   1407.2591    703.0000     49.1304
            1          26      0.0000      0.1667   1408.1028    703.0000     49.1775
            1          27      0.0000      0.1733   1409.0384    703.0000     49.2299
            1          28      0.0000      0.1800   1410.0870    703.0000     49.2886
            1          29      0.0000      0.1867   1411.2766    703.0000     49.3555
            1          30      0.0000      0.1933   1412.6448    703.0000     49.4326
            1          31      0.0000      0.2000   1414.2426    703.0000     49.5229
            2           1      0.0333      0.0000   1398.3451    703.0000     48.6383
            2           2      0.0333      0.0067   1398.7146    703.0000     48.6585
            2           3      0.0333      0.0133   1399.0921    703.0000     48.6792
            2           4      0.0333      0.0200   1399.4782    703.0000     48.7003
            2           5      0.0333      0.0267   1399.8734    703.0000     48.7220
            2           6      0.0333      0.0333   1400.2787    703.0000     48.7442
            2           7      0.0333      0.0400   1400.6947    703.0000     48.7671
            2           8      0.0333      0.0467   1401.1223    703.0000     48.7906
            2           9      0.0333      0.0533   1401.5625    703.0000     48.8148
            2          10      0.0333      0.0600   1402.0164    703.0000     48.8398
            2          11      0.0333      0.0667   1402.4850    703.0000     48.8656
            2          12      0.0333      0.0733   1402.9698    703.0000     48.8924
            2          13      0.0333      0.0800   1403.4720    703.0000     48.9201
            2          14      0.0333      0.0867   1403.9933    703.0000     48.9490
            2          15      0.0333      0.0933   1404.5353    703.0000     48.9790
            2          16      0.0333      0.1000   1405.1001    703.0000     49.0103
            2          17      0.0333      0.1067   1405.6898    703.0000     49.0431
            2          18      0.0333      0.1133   1406.3068    703.0000     49.0774
            2          19      0.0333      0.1200   1406.9537    703.0000     49.1134
            2          20      0.0333      0.1267   1407.6335    703.0000     49.1513
            2          21      0.0333      0.1333   1408.3496    703.0000     49.1913
            2          22      0.0333      0.1400   1409.1055    703.0000     49.2336
            2          23      0.0333      0.1467   1409.9054    703.0000     49.2784
            2          24      0.0333      0.1533   1410.7536    703.0000     49.3261
            2          25      0.0333      0.1600   1411.6551    703.0000     49.3768
            2          26      0.0333      0.1667   1412.6148    703.0000     49.4309
            2          27      0.0333      0.1733   1413.6381    703.0000     49.4887
            2          28      0.0333      0.1800   1414.7301    703.0000     49.5505
            2          29      0.0333      0.1867   1415.8955    703.0000     49.6167
            2          30      0.0333      0.1933   1417.1375    703.0000     49.6874
            2          31      0.0333      0.2000   1418.4569    703.0000     49.7627
            3           1      0.0667      0.0000   1399.5259    703.0000     48.7030
            3           2      0.0667      0.0067   1399.9787    703.0000     48.7278
            3           3      0.0667      0.0133   1400.4398    703.0000     48.7531
            3           4      0.0667      0.0200   1400.9100    703.0000     48.7789
            3           5      0.0667      0.0267   1401.3897    703.0000     48.8053
            3           6      0.0667      0.0333   1401.8798    703.0000     48.8323
            3           7      0.0667      0.0400   1402.3810    703.0000     48.8599
            3           8      0.0667      0.0467   1402.8941    703.0000     48.8882
            3           9      0.0667      0.0533   1403.4199    703.0000     48.9173
            3          10      0.0667      0.0600   1403.9595    703.0000     48.9471
            3          11      0.0667      0.0667   1404.5137    703.0000     48.9778
            3          12      0.0667      0.0733   1405.0837    703.0000     49.0094
            3          13      0.0667      0.0800   1405.6707    703.0000     49.0420
            3          14      0.0667      0.0867   1406.2757    703.0000     49.0757
            3          15      0.0667      0.0933   1406.9001    703.0000     49.1104
            3          16      0.0667      0.1000   1407.5453    703.0000     49.1464
            3          17      0.0667      0.1067   1408.2127    703.0000     49.1837
            3          18      0.0667      0.1133   1408.9039    703.0000     49.2223
            3          19      0.0667      0.1200   1409.6205    703.0000     49.2625
            3          20      0.0667      0.1267   1410.3641    703.0000     49.3042
            3          21      0.0667      0.1333   1411.1364    703.0000     49.3476
            3          22      0.0667      0.1400   1411.9391    703.0000     49.3928
            3          23      0.0667      0.1467   1412.7740    703.0000     49.4399
            3          24      0.0667      0.1533   1413.6427    703.0000     49.4890
            3          25      0.0667      0.1600   1414.5467    703.0000     49.5401
            3          26      0.0667      0.1667   1415.4873    703.0000     49.5935
            3          27      0.0667      0.1733   1416.4654    703.0000     49.6491
            3          28      0.0667      0.1800   1417.4816    703.0000     49.7070
            3          29      0.0667      0.1867   1418.5359    703.0000     49.7672
            3          30      0.0667      0.1933   1419.6274    703.0000     49.8297
            3          31      0.0667      0.2000   1420.7544    703.0000     49.8943
            4           1      0.1000      0.0000   1400.4984    703.0000     48.7563
            4           2      0.1000      0.0067   1401.0193    703.0000     48.7849
            4           3      0.1000      0.0133   1401.5479    703.0000     48.8140
            4           4      0.1000      0.0200   1402.0848    703.0000     48.8436
            4           5      0.1000      0.0267   1402.6306    703.0000     48.8737
            4           6      0.1000      0.0333   1403.1857    703.0000     48.9043
            4           7      0.1000      0.0400   1403.7510    703.0000     48.9356
            4           8      0.1000      0.0467   1404.3270    703.0000     48.9675
            4           9      0.1000      0.0533   1404.9143    703.0000     49.0000
            4          10      0.1000      0.0600   1405.5138    703.0000     49.0333
            4          11      0.1000      0.0667   1406.1261    703.0000     49.0673
            4          12      0.1000      0.0733   1406.7520    703.0000     49.1022
            4          13      0.1000      0.0800   1407.3922    703.0000     49.1379
            4          14      0.1000      0.0867   1408.0476    703.0000     49.1744
            4          15      0.1000      0.0933   1408.7190    703.0000     49.2120
            4          16      0.1000      0.1000   1409.4072    703.0000     49.2505
            4          17      0.1000      0.1067   1410.1130    703.0000     49.2901
            4          18      0.1000      0.1133   1410.8372    703.0000     49.3308
            4          19      0.1000      0.1200   1411.5807    703.0000     49.3726
            4          20      0.1000      0.1267   1412.3443    703.0000     49.4156
            4          21      0.1000      0.1333   1413.1285    703.0000     49.4599
            4          22      0.1000      0.1400   1413.9342    703.0000     49.5055
            4          23      0.1000      0.1467   1414.7618    703.0000     49.5523
            4          24      0.1000      0.1533   1415.6118    703.0000     49.6006
            4          25      0.1000      0.1600   1416.4845    703.0000     49.6502
            4          26      0.1000      0.1667   1417.3799    703.0000     49.7012
            4          27      0.1000      0.1733   1418.2981    703.0000     49.7536
            4          28      0.1000      0.1800   1419.2385    703.0000     49.8074
            4          29      0.1000      0.1867   1420.2006    703.0000     49.8625
            4          30      0.1000      0.1933   1421.1833    703.0000     49.9190
            4          31      0.1000      0.2000   1422.1854    703.0000     49.9767
            5           1      0.1333      0.0000   1401.2747    703.0000     48.7990
            5           2      0.1333      0.0067   1401.8497    703.0000     48.8306
            5           3      0.1333      0.0133   1402.4312    703.0000     48.8627
            5           4      0.1333      0.0200   1403.0197    703.0000     48.8952
            5           5      0.1333      0.0267   1403.6156    703.0000     48.9281
            5           6      0.1333      0.0333   1404.2194    703.0000     48.9615
            5           7      0.1333      0.0400   1404.8317    703.0000     48.9954
            5           8      0.1333      0.0467   1405.4527    703.0000     49.0299
            5           9      0.1333      0.0533   1406.0832    703.0000     49.0649
            5          10      0.1333      0.0600   1406.7235    703.0000     49.1006
            5          11      0.1333      0.0667   1407.3742    703.0000     49.1369
            5          12      0.1333      0.0733   1408.0357    703.0000     49.1738
            5          13      0.1333      0.0800   1408.7085    703.0000     49.2114
            5          14      0.1333      0.0867   1409.3932    703.0000     49.2497
            5          15      0.1333      0.0933   1410.0902    703.0000     49.2888
            5          16      0.1333      0.1000   1410.7999    703.0000     49.3287
            5          17      0.1333      0.1067   1411.5228    703.0000     49.3693
            5          18      0.1333      0.1133   1412.2592    703.0000     49.4108
            5          19      0.1333      0.1200   1413.0096    703.0000     49.4532
            5          20      0.1333      0.1267   1413.7743    703.0000     49.4964
            5          21      0.1333      0.1333   1414.5534    703.0000     49.5405
            5          22      0.1333      0.1400   1415.3473    703.0000     49.5856
            5          23      0.1333      0.1467   1416.1559    703.0000     49.6315
            5          24      0.1333      0.1533   1416.9794    703.0000     49.6784
            5          25      0.1333      0.1600   1417.8176    703.0000     49.7262
            5          26      0.1333      0.1667   1418.6703    703.0000     49.7749
            5          27      0.1333      0.1733   1419.5373    703.0000     49.8245
            5          28      0.1333      0.1800   1420.4180    703.0000     49.8750
            5          29      0.1333      0.1867   1421.3118    703.0000     49.9264
            5          30      0.1333      0.1933   1422.2180    703.0000     49.9785
            5          31      0.1333      0.2000   1423.1358    703.0000     50.0315
            6           1      0.1667      0.0000   1401.8804    703.0000     48.8323
            6           2      0.1667      0.0067   1402.4974    703.0000     48.8663
            6           3      0.1667      0.0133   1403.1195    703.0000     48.9007
            6           4      0.1667      0.0200   1403.7471    703.0000     48.9354
            6           5      0.1667      0.0267   1404.3806    703.0000     48.9704
            6           6      0.1667      0.0333   1405.0203    703.0000     49.0059
            6           7      0.1667      0.0400   1405.6666    703.0000     49.0418
            6           8      0.1667      0.0467   1406.3198    703.0000     49.0781
            6           9      0.1667      0.0533   1406.9803    703.0000     49.1149
            6          10      0.1667      0.0600   1407.6483    703.0000     49.1521
            6          11      0.1667      0.0667   1408.3243    703.0000     49.1899
            6          12      0.1667      0.0733   1409.0085    703.0000     49.2282
            6          13      0.1667      0.0800   1409.7013    703.0000     49.2670
            6          14      0.1667      0.0867   1410.4028    703.0000     49.3064
            6          15      0.1667      0.0933   1411.1134    703.0000     49.3463
            6          16      0.1667      0.1000   1411.8334    703.0000     49.3868
            6          17      0.1667      0.1067   1412.5629    703.0000     49.4280
            6          18      0.1667      0.1133   1413.3020    703.0000     49.4697
            6          19      0.1667      0.1200   1414.0511    703.0000     49.5121
            6          20      0.1667      0.1267   1414.8101    703.0000     49.5551
            6          21      0.1667      0.1333   1415.5791    703.0000     49.5987
            6          22      0.1667      0.1400   1416.3581    703.0000     49.6430
            6          23      0.1667      0.1467   1417.1471    703.0000     49.6879
            6          24      0.1667      0.1533   1417.9460    703.0000     49.7335
            6          25      0.1667      0.1600   1418.7545    703.0000     49.7797
            6          26      0.1667      0.1667   1419.5725    703.0000     49.8265
            6          27      0.1667      0.1733   1420.3997    703.0000     49.8740
            6          28      0.1667      0.1800   1421.2356    703.0000     49.9220
            6          29      0.1667      0.1867   1422.0798    703.0000     49.9706
            6          30      0.1667      0.1933   1422.9318    703.0000     50.0197
            6          31      0.1667      0.2000   1423.7910    703.0000     50.0693
            7           1      0.2000      0.0000   1402.3451    703.0000     48.8579
            7           2      0.2000      0.0067   1402.9942    703.0000     48.8937
            7           3      0.2000      0.0133   1403.6470    703.0000     48.9298
            7           4      0.2000      0.0200   1404.3041    703.0000     48.9662
            7           5      0.2000      0.0267   1404.9655    703.0000     49.0029
            7           6      0.2000      0.0333   1405.6315    703.0000     49.0398
            7           7      0.2000      0.0400   1406.3025    703.0000     49.0771
            7           8      0.2000      0.0467   1406.9785    703.0000     49.1148
            7           9      0.2000      0.0533   1407.6600    703.0000     49.1528
            7          10      0.2000      0.0600   1408.3471    703.0000     49.1912
            7          11      0.2000      0.0667   1409.0400    703.0000     49.2299
            7          12      0.2000      0.0733   1409.7388    703.0000     49.2691
            7          13      0.2000      0.0800   1410.4439    703.0000     49.3087
            7          14      0.2000      0.0867   1411.1553    703.0000     49.3487
            7          15      0.2000      0.0933   1411.8732    703.0000     49.3891
            7          16      0.2000      0.1000   1412.5977    703.0000     49.4299
            7          17      0.2000      0.1067   1413.3290    703.0000     49.4712
            7          18      0.2000      0.1133   1414.0670    703.0000     49.5130
            7          19      0.2000      0.1200   1414.8119    703.0000     49.5552
            7          20      0.2000      0.1267   1415.5636    703.0000     49.5978
            7          21      0.2000      0.1333   1416.3221    703.0000     49.6410
            7          22      0.2000      0.1400   1417.0875    703.0000     49.6845
            7          23      0.2000      0.1467   1417.8595    703.0000     49.7286
            7          24      0.2000      0.1533   1418.6381    703.0000     49.7731
            7          25      0.2000      0.1600   1419.4231    703.0000     49.8180
            7          26      0.2000      0.1667   1420.2143    703.0000     49.8633
            7          27      0.2000      0.1733   1421.0115    703.0000     49.9091
            7          28      0.2000      0.1800   1421.8143    703.0000     49.9553
            7          29      0.2000      0.1867   1422.6225    703.0000     50.0018
            7          30      0.2000      0.1933   1423.4356    703.0000     50.0488
            7          31      0.2000      0.2000   1424.2533    703.0000     50.0961
            8           1      0.2333      0.0000   1402.6973    703.0000     48.8773
            8           2      0.2333      0.0067   1403.3705    703.0000     48.9145
            8           3      0.2333      0.0133   1404.0465    703.0000     48.9519
            8           4      0.2333      0.0200   1404.7255    703.0000     48.9895
            8           5      0.2333      0.0267   1405.4075    703.0000     49.0274
            8           6      0.2333      0.0333   1406.0929    703.0000     49.0655
            8           7      0.2333      0.0400   1406.7817    703.0000     49.1038
            8           8      0.2333      0.0467   1407.4742    703.0000     49.1424
            8           9      0.2333      0.0533   1408.1705    703.0000     49.1813
            8          10      0.2333      0.0600   1408.8707    703.0000     49.2205
            8          11      0.2333      0.0667   1409.5751    703.0000     49.2599
            8          12      0.2333      0.0733   1410.2836    703.0000     49.2997
            8          13      0.2333      0.0800   1410.9965    703.0000     49.3397
            8          14      0.2333      0.0867   1411.7138    703.0000     49.3801
            8          15      0.2333      0.0933   1412.4356    703.0000     49.4208
            8          16      0.2333      0.1000   1413.1620    703.0000     49.4618
            8          17      0.2333      0.1067   1413.8930    703.0000     49.5031
            8          18      0.2333      0.1133   1414.6286    703.0000     49.5448
            8          19      0.2333      0.1200   1415.3688    703.0000     49.5868
            8          20      0.2333      0.1267   1416.1137    703.0000     49.6291
            8          21      0.2333      0.1333   1416.8631    703.0000     49.6718
            8          22      0.2333      0.1400   1417.6171    703.0000     49.7147
            8          23      0.2333      0.1467   1418.3755    703.0000     49.7580
            8          24      0.2333      0.1533   1419.1383    703.0000     49.8017
            8          25      0.2333      0.1600   1419.9052    703.0000     49.8456
            8          26      0.2333      0.1667   1420.6762    703.0000     49.8898
            8          27      0.2333      0.1733   1421.4510    703.0000     49.9344
            8          28      0.2333      0.1800   1422.2294    703.0000     49.9792
            8          29      0.2333      0.1867   1423.0113    703.0000     50.0243
            8          30      0.2333      0.1933   1423.7963    703.0000     50.0696
            8          31      0.2333      0.2000   1424.5841    703.0000     50.1152
            9           1      0.2667      0.0000   1402.9615    703.0000     48.8919
            9           2      0.2667      0.0067   1403.6529    703.0000     48.9302
            9           3      0.2667      0.0133   1404.3462    703.0000     48.9685
            9           4      0.2667      0.0200   1405.0414    703.0000     49.0071
            9           5      0.2667      0.0267   1405.7386    703.0000     49.0458
            9           6      0.2667      0.0333   1406.4381    703.0000     49.0847
            9           7      0.2667      0.0400   1407.1399    703.0000     49.1238
            9           8      0.2667      0.0467   1407.8442    703.0000     49.1631
            9           9      0.2667      0.0533   1408.5511    703.0000     49.2026
            9          10      0.2667      0.0600   1409.2606    703.0000     49.2423
            9          11      0.2667      0.0667   1409.9728    703.0000     49.2822
            9          12      0.2667      0.0733   1410.6879    703.0000     49.3224
            9          13      0.2667      0.0800   1411.4059    703.0000     49.3628
            9          14      0.2667      0.0867   1412.1268    703.0000     49.4034
            9          15      0.2667      0.0933   1412.8507    703.0000     49.4442
            9          16      0.2667      0.1000   1413.5777    703.0000     49.4853
            9          17      0.2667      0.1067   1414.3077    703.0000     49.5266
            9          18      0.2667      0.1133   1415.0407    703.0000     49.5682
            9          19      0.2667      0.1200   1415.7768    703.0000     49.6100
            9          20      0.2667      0.1267   1416.5159    703.0000     49.6520
            9          21      0.2667      0.1333   1417.2580    703.0000     49.6943
            9          22      0.2667      0.1400   1418.0030    703.0000     49.7368
            9          23      0.2667      0.1467   1418.7509    703.0000     49.7795
            9          24      0.2667      0.1533   1419.5015    703.0000     49.8225
            9          25      0.2667      0.1600   1420.2548    703.0000     49.8657
            9          26      0.2667      0.1667   1421.0107    703.0000     49.9091
            9          27      0.2667      0.1733   1421.7689    703.0000     49.9527
            9          28      0.2667      0.1800   1422.5295    703.0000     49.9965
            9          29      0.2667      0.1867   1423.2921    703.0000     50.0405
            9          30      0.2667      0.1933   1424.0567    703.0000     50.0847
            9          31      0.2667      0.2000   1424.8230    703.0000     50.1290
           10           1      0.3000      0.0000   1403.1580    703.0000     48.9028
           10           2      0.3000      0.0067   1403.8629    703.0000     48.9418
           10           3      0.3000      0.0133   1404.5689    703.0000     48.9809
           10           4      0.3000      0.0200   1405.2760    703.0000     49.0201
           10           5      0.3000      0.0267   1405.9845    703.0000     49.0595
           10           6      0.3000      0.0333   1406.6943    703.0000     49.0990
           10           7      0.3000      0.0400   1407.4056    703.0000     49.1386
           10           8      0.3000      0.0467   1408.1184    703.0000     49.1784
           10           9      0.3000      0.0533   1408.8328    703.0000     49.2183
           10          10      0.3000      0.0600   1409.5489    703.0000     49.2584
           10          11      0.3000      0.0667   1410.2666    703.0000     49.2987
           10          12      0.3000      0.0733   1410.9862    703.0000     49.3391
           10          13      0.3000      0.0800   1411.7076    703.0000     49.3797
           10          14      0.3000      0.0867   1412.4308    703.0000     49.4205
           10          15      0.3000      0.0933   1413.1559    703.0000     49.4614
           10          16      0.3000      0.1000   1413.8829    703.0000     49.5025
           10          17      0.3000      0.1067   1414.6118    703.0000     49.5438
           10          18      0.3000      0.1133   1415.3425    703.0000     49.5853
           10          19      0.3000      0.1200   1416.0752    703.0000     49.6269
           10          20      0.3000      0.1267   1416.8097    703.0000     49.6687
           10          21      0.3000      0.1333   1417.5461    703.0000     49.7107
           10          22      0.3000      0.1400   1418.2842    703.0000     49.7528
           10          23      0.3000      0.1467   1419.0241    703.0000     49.7951
           10          24      0.3000      0.1533   1419.7656    703.0000     49.8376
           10          25      0.3000      0.1600   1420.5088    703.0000     49.8802
           10          26      0.3000      0.1667   1421.2535    703.0000     49.9230
           10          27      0.3000      0.1733   1421.9996    703.0000     49.9659
           10          28      0.3000      0.1800   1422.7470    703.0000     50.0090
           10          29      0.3000      0.1867   1423.4956    703.0000     50.0522
           10          30      0.3000      0.1933   1424.2453    703.0000     50.0956
           10          31      0.3000      0.2000   1424.9960    703.0000     50.1391
           11           1      0.3333      0.0000   1403.3024    703.0000     48.9108
           11           2      0.3333      0.0067   1404.0172    703.0000     48.9503
           11           3      0.3333      0.0133   1404.7325    703.0000     48.9899
           11           4      0.3333      0.0200   1405.4485    703.0000     49.0297
           11           5      0.3333      0.0267   1406.1651    703.0000     49.0695
           11           6      0.3333      0.0333   1406.8824    703.0000     49.1094
           11           7      0.3333      0.0400   1407.6005    703.0000     49.1495
           11           8      0.3333      0.0467   1408.3195    703.0000     49.1896
           11           9      0.3333      0.0533   1409.0393    703.0000     49.2299
           11          10      0.3333      0.0600   1409.7600    703.0000     49.2703
           11          11      0.3333      0.0667   1410.4817    703.0000     49.3108
           11          12      0.3333      0.0733   1411.2043    703.0000     49.3514
           11          13      0.3333      0.0800   1411.9280    703.0000     49.3922
           11          14      0.3333      0.0867   1412.6527    703.0000     49.4330
           11          15      0.3333      0.0933   1413.3785    703.0000     49.4740
           11          16      0.3333      0.1000   1414.1053    703.0000     49.5151
           11          17      0.3333      0.1067   1414.8332    703.0000     49.5564
           11          18      0.3333      0.1133   1415.5621    703.0000     49.5978
           11          19      0.3333      0.1200   1416.2921    703.0000     49.6393
           11          20      0.3333      0.1267   1417.0231    703.0000     49.6809
           11          21      0.3333      0.1333   1417.7552    703.0000     49.7226
           11          22      0.3333      0.1400   1418.4882    703.0000     49.7645
           11          23      0.3333      0.1467   1419.2221    703.0000     49.8065
           11          24      0.3333      0.1533   1419.9569    703.0000     49.8486
           11          25      0.3333      0.1600   1420.6926    703.0000     49.8908
           11          26      0.3333      0.1667   1421.4291    703.0000     49.9331
           11          27      0.3333      0.1733   1422.1663    703.0000     49.9756
           11          28      0.3333      0.1800   1422.9042    703.0000     50.0181
           11          29      0.3333      0.1867   1423.6426    703.0000     50.0607
           11          30      0.3333      0.1933   1424.3816    703.0000     50.1035
           11          31      0.3333      0.2000   1425.1210    703.0000     50.1463
           12           1      0.3667      0.0000   1403.4068    703.0000     48.9165
           12           2      0.3667      0.0067   1404.1287    703.0000     48.9565
           12           3      0.3667      0.0133   1404.8508    703.0000     48.9965
           12           4      0.3667      0.0200   1405.5731    703.0000     49.0366
           12           5      0.3667      0.0267   1406.2955    703.0000     49.0768
           12           6      0.3667      0.0333   1407.0182    703.0000     49.1170
           12           7      0.3667      0.0400   1407.7412    703.0000     49.1573
           12           8      0.3667      0.0467   1408.4645    703.0000     49.1977
           12           9      0.3667      0.0533   1409.1882    703.0000     49.2382
           12          10      0.3667      0.0600   1409.9122    703.0000     49.2788
           12          11      0.3667      0.0667   1410.6366    703.0000     49.3195
           12          12      0.3667      0.0733   1411.3614    703.0000     49.3603
           12          13      0.3667      0.0800   1412.0867    703.0000     49.4011
           12          14      0.3667      0.0867   1412.8124    703.0000     49.4420
           12          15      0.3667      0.0933   1413.5386    703.0000     49.4831
           12          16      0.3667      0.1000   1414.2652    703.0000     49.5242
           12          17      0.3667      0.1067   1414.9922    703.0000     49.5654
           12          18      0.3667      0.1133   1415.7198    703.0000     49.6067
           12          19      0.3667      0.1200   1416.4477    703.0000     49.6481
           12          20      0.3667      0.1267   1417.1761    703.0000     49.6896
           12          21      0.3667      0.1333   1417.9050    703.0000     49.7312
           12          22      0.3667      0.1400   1418.6342    703.0000     49.7728
           12          23      0.3667      0.1467   1419.3638    703.0000     49.8146
           12          24      0.3667      0.1533   1420.0938    703.0000     49.8564
           12          25      0.3667      0.1600   1420.8241    703.0000     49.8983
           12          26      0.3667      0.1667   1421.5546    703.0000     49.9403
           12          27      0.3667      0.1733   1422.2854    703.0000     49.9824
           12          28      0.3667      0.1800   1423.0165    703.0000     50.0246
           12          29      0.3667      0.1867   1423.7476    703.0000     50.0668
           12          30      0.3667      0.1933   1424.4789    703.0000     50.1091
           12          31      0.3667      0.2000   1425.2102    703.0000     50.1515
           13           1      0.4000      0.0000   1403.4800    703.0000     48.9206
           13           2      0.4000      0.0067   1404.2069    703.0000     48.9608
           13           3      0.4000      0.0133   1404.9337    703.0000     49.0011
           13           4      0.4000      0.0200   1405.6604    703.0000     49.0414
           13           5      0.4000      0.0267   1406.3869    703.0000     49.0818
           13           6      0.4000      0.0333   1407.1134    703.0000     49.1223
           13           7      0.4000      0.0400   1407.8398    703.0000     49.1628
           13           8      0.4000      0.0467   1408.5661    703.0000     49.2034
           13           9      0.4000      0.0533   1409.2924    703.0000     49.2441
           13          10      0.4000      0.0600   1410.0187    703.0000     49.2848
           13          11      0.4000      0.0667   1410.7450    703.0000     49.3256
           13          12      0.4000      0.0733   1411.4713    703.0000     49.3664
           13          13      0.4000      0.0800   1412.1976    703.0000     49.4074
           13          14      0.4000      0.0867   1412.9239    703.0000     49.4483
           13          15      0.4000      0.0933   1413.6503    703.0000     49.4894
           13          16      0.4000      0.1000   1414.3767    703.0000     49.5305
           13          17      0.4000      0.1067   1415.1032    703.0000     49.5717
           13          18      0.4000      0.1133   1415.8297    703.0000     49.6130
           13          19      0.4000      0.1200   1416.5562    703.0000     49.6543
           13          20      0.4000      0.1267   1417.2828    703.0000     49.6957
           13          21      0.4000      0.1333   1418.0094    703.0000     49.7371
           13          22      0.4000      0.1400   1418.7359    703.0000     49.7786
           13          23      0.4000      0.1467   1419.4625    703.0000     49.8202
           13          24      0.4000      0.1533   1420.1891    703.0000     49.8619
           13          25      0.4000      0.1600   1420.9155    703.0000     49.9036
           13          26      0.4000      0.1667   1421.6420    703.0000     49.9454
           13          27      0.4000      0.1733   1422.3683    703.0000     49.9872
           13          28      0.4000      0.1800   1423.0946    703.0000     50.0291
           13          29      0.4000      0.1867   1423.8206    703.0000     50.0710
           13          30      0.4000      0.1933   1424.5466    703.0000     50.1130
           13          31      0.4000      0.2000   1425.2723    703.0000     50.1551
           14           1      0.4333      0.0000   1403.5281    703.0000     48.9232
           14           2      0.4333      0.0067   1404.2584    703.0000     48.9637
           14           3      0.4333      0.0133   1404.9883    703.0000     49.0041
           14           4      0.4333      0.0200   1405.7179    703.0000     49.0446
           14           5      0.4333      0.0267   1406.4471    703.0000     49.0852
           14           6      0.4333      0.0333   1407.1760    703.0000     49.1258
           14           7      0.4333      0.0400   1407.9046    703.0000     49.1665
           14           8      0.4333      0.0467   1408.6329    703.0000     49.2072
           14           9      0.4333      0.0533   1409.3610    703.0000     49.2479
           14          10      0.4333      0.0600   1410.0887    703.0000     49.2887
           14          11      0.4333      0.0667   1410.8162    703.0000     49.3296
           14          12      0.4333      0.0733   1411.5435    703.0000     49.3705
           14          13      0.4333      0.0800   1412.2705    703.0000     49.4115
           14          14      0.4333      0.0867   1412.9972    703.0000     49.4525
           14          15      0.4333      0.0933   1413.7238    703.0000     49.4935
           14          16      0.4333      0.1000   1414.4500    703.0000     49.5347
           14          17      0.4333      0.1067   1415.1761    703.0000     49.5758
           14          18      0.4333      0.1133   1415.9019    703.0000     49.6171
           14          19      0.4333      0.1200   1416.6275    703.0000     49.6583
           14          20      0.4333      0.1267   1417.3528    703.0000     49.6997
           14          21      0.4333      0.1333   1418.0779    703.0000     49.7410
           14          22      0.4333      0.1400   1418.8027    703.0000     49.7825
           14          23      0.4333      0.1467   1419.5272    703.0000     49.8239
           14          24      0.4333      0.1533   1420.2515    703.0000     49.8655
           14          25      0.4333      0.1600   1420.9755    703.0000     49.9070
           14          26      0.4333      0.1667   1421.6992    703.0000     49.9487
           14          27      0.4333      0.1733   1422.4227    703.0000     49.9903
           14          28      0.4333      0.1800   1423.1457    703.0000     50.0320
           14          29      0.4333      0.1867   1423.8685    703.0000     50.0738
           14          30      0.4333      0.1933   1424.5909    703.0000     50.1156
           14          31      0.4333      0.2000   1425.3129    703.0000     50.1574
           15           1      0.4667      0.0000   1403.5555    703.0000     48.9248
           15           2      0.4667      0.0067   1404.2876    703.0000     48.9653
           15           3      0.4667      0.0133   1405.0193    703.0000     49.0058
           15           4      0.4667      0.0200   1405.7505    703.0000     49.0464
           15           5      0.4667      0.0267   1406.4812    703.0000     49.0871
           15           6      0.4667      0.0333   1407.2115    703.0000     49.1278
           15           7      0.4667      0.0400   1407.9414    703.0000     49.1685
           15           8      0.4667      0.0467   1408.6708    703.0000     49.2093
           15           9      0.4667      0.0533   1409.3999    703.0000     49.2501
           15          10      0.4667      0.0600   1410.1285    703.0000     49.2910
           15          11      0.4667      0.0667   1410.8566    703.0000     49.3319
           15          12      0.4667      0.0733   1411.5844    703.0000     49.3728
           15          13      0.4667      0.0800   1412.3118    703.0000     49.4138
           15          14      0.4667      0.0867   1413.0388    703.0000     49.4548
           15          15      0.4667      0.0933   1413.7654    703.0000     49.4959
           15          16      0.4667      0.1000   1414.4916    703.0000     49.5370
           15          17      0.4667      0.1067   1415.2174    703.0000     49.5782
           15          18      0.4667      0.1133   1415.9428    703.0000     49.6194
           15          19      0.4667      0.1200   1416.6678    703.0000     49.6606
           15          20      0.4667      0.1267   1417.3924    703.0000     49.7019
           15          21      0.4667      0.1333   1418.1166    703.0000     49.7433
           15          22      0.4667      0.1400   1418.8405    703.0000     49.7846
           15          23      0.4667      0.1467   1419.5639    703.0000     49.8260
           15          24      0.4667      0.1533   1420.2869    703.0000     49.8675
           15          25      0.4667      0.1600   1421.0095    703.0000     49.9090
           15          26      0.4667      0.1667   1421.7316    703.0000     49.9505
           15          27      0.4667      0.1733   1422.4534    703.0000     49.9921
           15          28      0.4667      0.1800   1423.1747    703.0000     50.0337
           15          29      0.4667      0.1867   1423.8956    703.0000     50.0754
           15          30      0.4667      0.1933   1424.6160    703.0000     50.1171
           15          31      0.4667      0.2000   1425.3359    703.0000     50.1588
           16           1      0.5000      0.0000   1403.5643    703.0000     48.9252
           16           2      0.5000      0.0067   1404.2971    703.0000     48.9658
           16           3      0.5000      0.0133   1405.0293    703.0000     49.0064
           16           4      0.5000      0.0200   1405.7610    703.0000     49.0470
           16           5      0.5000      0.0267   1406.4923    703.0000     49.0877
           16           6      0.5000      0.0333   1407.2230    703.0000     49.1284
           16           7      0.5000      0.0400   1407.9533    703.0000     49.1692
           16           8      0.5000      0.0467   1408.6831    703.0000     49.2100
           16           9      0.5000      0.0533   1409.4124    703.0000     49.2508
           16          10      0.5000      0.0600   1410.1413    703.0000     49.2917
           16          11      0.5000      0.0667   1410.8697    703.0000     49.3326
           16          12      0.5000      0.0733   1411.5977    703.0000     49.3736
           16          13      0.5000      0.0800   1412.3252    703.0000     49.4145
           16          14      0.5000      0.0867   1413.0522    703.0000     49.4556
           16          15      0.5000      0.0933   1413.7788    703.0000     49.4967
           16          16      0.5000      0.1000   1414.5050    703.0000     49.5378
           16          17      0.5000      0.1067   1415.2307    703.0000     49.5789
           16          18      0.5000      0.1133   1415.9560    703.0000     49.6201
           16          19      0.5000      0.1200   1416.6808    703.0000     49.6614
           16          20      0.5000      0.1267   1417.4052    703.0000     49.7027
           16          21      0.5000      0.1333   1418.1292    703.0000     49.7440
           16          22      0.5000      0.1400   1418.8527    703.0000     49.7853
           16          23      0.5000      0.1467   1419.5757    703.0000     49.8267
           16          24      0.5000      0.1533   1420.2983    703.0000     49.8681
           16          25      0.5000      0.1600   1421.0205    703.0000     49.9096
           16          26      0.5000      0.1667   1421.7421    703.0000     49.9511
           16          27      0.5000      0.1733   1422.4633    703.0000     49.9927
           16          28      0.5000      0.1800   1423.1841    703.0000     50.0343
           16          29      0.5000      0.1867   1423.9043    703.0000     50.0759
           16          30      0.5000      0.1933   1424.6241    703.0000     50.1175
           16          31      0.5000      0.2000   1425.3434    703.0000     50.1592
           17           1      0.5333      0.0000   1403.5554    703.0000     48.9248
           17           2      0.5333      0.0067   1404.2876    703.0000     48.9653
           17           3      0.5333      0.0133   1405.0192    703.0000     49.0058
           17           4      0.5333      0.0200   1405.7504    703.0000     49.0464
           17           5      0.5333      0.0267   1406.4812    703.0000     49.0871
           17           6      0.5333      0.0333   1407.2115    703.0000     49.1278
           17           7      0.5333      0.0400   1407.9414    703.0000     49.1685
           17           8      0.5333      0.0467   1408.6708    703.0000     49.2093
           17           9      0.5333      0.0533   1409.3998    703.0000     49.2501
           17          10      0.5333      0.0600   1410.1284    703.0000     49.2910
           17          11      0.5333      0.0667   1410.8566    703.0000     49.3319
           17          12      0.5333      0.0733   1411.5844    703.0000     49.3728
           17          13      0.5333      0.0800   1412.3118    703.0000     49.4138
           17          14      0.5333      0.0867   1413.0388    703.0000     49.4548
           17          15      0.5333      0.0933   1413.7654    703.0000     49.4959
           17          16      0.5333      0.1000   1414.4915    703.0000     49.5370
           17          17      0.5333      0.1067   1415.2173    703.0000     49.5782
           17          18      0.5333      0.1133   1415.9428    703.0000     49.6194
           17          19      0.5333      0.1200   1416.6678    703.0000     49.6606
           17          20      0.5333      0.1267   1417.3924    703.0000     49.7019
           17          21      0.5333      0.1333   1418.1166    703.0000     49.7432
           17          22      0.5333      0.1400   1418.8404    703.0000     49.7846
           17          23      0.5333      0.1467   1419.5638    703.0000     49.8260
           17          24      0.5333      0.1533   1420.2869    703.0000     49.8675
           17          25      0.5333      0.1600   1421.0095    703.0000     49.9090
           17          26      0.5333      0.1667   1421.7316    703.0000     49.9505
           17          27      0.5333      0.1733   1422.4534    703.0000     49.9921
           17          28      0.5333      0.1800   1423.1747    703.0000     50.0337
           17          29      0.5333      0.1867   1423.8956    703.0000     50.0754
           17          30      0.5333      0.1933   1424.6160    703.0000     50.1171
           17          31      0.5333      0.2000   1425.3359    703.0000     50.1588
           18           1      0.5667      0.0000   1403.5281    703.0000     48.9232
           18           2      0.5667      0.0067   1404.2584    703.0000     48.9637
           18           3      0.5667      0.0133   1404.9883    703.0000     49.0041
           18           4      0.5667      0.0200   1405.7178    703.0000     49.0446
           18           5      0.5667      0.0267   1406.4470    703.0000     49.0852
           18           6      0.5667      0.0333   1407.1760    703.0000     49.1258
           18           7      0.5667      0.0400   1407.9046    703.0000     49.1665
           18           8      0.5667      0.0467   1408.6329    703.0000     49.2072
           18           9      0.5667      0.0533   1409.3609    703.0000     49.2479
           18          10      0.5667      0.0600   1410.0887    703.0000     49.2887
           18          11      0.5667      0.0667   1410.8162    703.0000     49.3296
           18          12      0.5667      0.0733   1411.5434    703.0000     49.3705
           18          13      0.5667      0.0800   1412.2704    703.0000     49.4115
           18          14      0.5667      0.0867   1412.9972    703.0000     49.4525
           18          15      0.5667      0.0933   1413.7237    703.0000     49.4935
           18          16      0.5667      0.1000   1414.4500    703.0000     49.5347
           18          17      0.5667      0.1067   1415.1760    703.0000     49.5758
           18          18      0.5667      0.1133   1415.9018    703.0000     49.6171
           18          19      0.5667      0.1200   1416.6274    703.0000     49.6583
           18          20      0.5667      0.1267   1417.3527    703.0000     49.6997
           18          21      0.5667      0.1333   1418.0778    703.0000     49.7410
           18          22      0.5667      0.1400   1418.8026    703.0000     49.7825
           18          23      0.5667      0.1467   1419.5272    703.0000     49.8239
           18          24      0.5667      0.1533   1420.2515    703.0000     49.8655
           18          25      0.5667      0.1600   1420.9755    703.0000     49.9070
           18          26      0.5667      0.1667   1421.6992    703.0000     49.9487
           18          27      0.5667      0.1733   1422.4226    703.0000     49.9903
           18          28      0.5667      0.1800   1423.1457    703.0000     50.0320
           18          29      0.5667      0.1867   1423.8685    703.0000     50.0738
           18          30      0.5667      0.1933   1424.5909    703.0000     50.1156
           18          31      0.5667      0.2000   1425.3129    703.0000     50.1574
           19           1      0.6000      0.0000   1403.4799    703.0000     48.9206
           19           2      0.6000      0.0067   1404.2069    703.0000     48.9608
           19           3      0.6000      0.0133   1404.9337    703.0000     49.0011
           19           4      0.6000      0.0200   1405.6603    703.0000     49.0414
           19           5      0.6000      0.0267   1406.3869    703.0000     49.0818
           19           6      0.6000      0.0333   1407.1133    703.0000     49.1223
           19           7      0.6000      0.0400   1407.8397    703.0000     49.1628
           19           8      0.6000      0.0467   1408.5660    703.0000     49.2034
           19           9      0.6000      0.0533   1409.2923    703.0000     49.2441
           19          10      0.6000      0.0600   1410.0186    703.0000     49.2848
           19          11      0.6000      0.0667   1410.7449    703.0000     49.3256
           19          12      0.6000      0.0733   1411.4712    703.0000     49.3664
           19          13      0.6000      0.0800   1412.1975    703.0000     49.4073
           19          14      0.6000      0.0867   1412.9239    703.0000     49.4483
           19          15      0.6000      0.0933   1413.6503    703.0000     49.4894
           19          16      0.6000      0.1000   1414.3767    703.0000     49.5305
           19          17      0.6000      0.1067   1415.1031    703.0000     49.5717
           19          18      0.6000      0.1133   1415.8296    703.0000     49.6130
           19          19      0.6000      0.1200   1416.5562    703.0000     49.6543
           19          20      0.6000      0.1267   1417.2827    703.0000     49.6957
           19          21      0.6000      0.1333   1418.0093    703.0000     49.7371
           19          22      0.6000      0.1400   1418.7359    703.0000     49.7786
           19          23      0.6000      0.1467   1419.4624    703.0000     49.8202
           19          24      0.6000      0.1533   1420.1890    703.0000     49.8619
           19          25      0.6000      0.1600   1420.9155    703.0000     49.9036
           19          26      0.6000      0.1667   1421.6419    703.0000     49.9454
           19          27      0.6000      0.1733   1422.3683    703.0000     49.9872
           19          28      0.6000      0.1800   1423.0945    703.0000     50.0291
           19          29      0.6000      0.1867   1423.8206    703.0000     50.0710
           19          30      0.6000      0.1933   1424.5465    703.0000     50.1130
           19          31      0.6000      0.2000   1425.2722    703.0000     50.1551
           20           1      0.6333      0.0000   1403.4067    703.0000     48.9165
           20           2      0.6333      0.0067   1404.1287    703.0000     48.9565
           20           3      0.6333      0.0133   1404.8508    703.0000     48.9965
           20           4      0.6333      0.0200   1405.5730    703.0000     49.0366
           20           5      0.6333      0.0267   1406.2955    703.0000     49.0768
           20           6      0.6333      0.0333   1407.0182    703.0000     49.1170
           20           7      0.6333      0.0400   1407.7412    703.0000     49.1573
           20           8      0.6333      0.0467   1408.4645    703.0000     49.1977
           20           9      0.6333      0.0533   1409.1881    703.0000     49.2382
           20          10      0.6333      0.0600   1409.9121    703.0000     49.2788
           20          11      0.6333      0.0667   1410.6365    703.0000     49.3195
           20          12      0.6333      0.0733   1411.3614    703.0000     49.3602
           20          13      0.6333      0.0800   1412.0866    703.0000     49.4011
           20          14      0.6333      0.0867   1412.8123    703.0000     49.4420
           20          15      0.6333      0.0933   1413.5385    703.0000     49.4831
           20          16      0.6333      0.1000   1414.2651    703.0000     49.5242
           20          17      0.6333      0.1067   1414.9922    703.0000     49.5654
           20          18      0.6333      0.1133   1415.7197    703.0000     49.6067
           20          19      0.6333      0.1200   1416.4477    703.0000     49.6481
           20          20      0.6333      0.1267   1417.1761    703.0000     49.6896
           20          21      0.6333      0.1333   1417.9049    703.0000     49.7312
           20          22      0.6333      0.1400   1418.6341    703.0000     49.7728
           20          23      0.6333      0.1467   1419.3638    703.0000     49.8146
           20          24      0.6333      0.1533   1420.0937    703.0000     49.8564
           20          25      0.6333      0.1600   1420.8240    703.0000     49.8983
           20          26      0.6333      0.1667   1421.5546    703.0000     49.9403
           20          27      0.6333      0.1733   1422.2854    703.0000     49.9824
           20          28      0.6333      0.1800   1423.0164    703.0000     50.0246
           20          29      0.6333      0.1867   1423.7476    703.0000     50.0668
           20          30      0.6333      0.1933   1424.4788    703.0000     50.1091
           20          31      0.6333      0.2000   1425.2102    703.0000     50.1515
           21           1      0.6667      0.0000   1403.3024    703.0000     48.9108
           21           2      0.6667      0.0067   1404.0172    703.0000     48.9503
           21           3      0.6667      0.0133   1404.7325    703.0000     48.9899
           21           4      0.6667      0.0200   1405.4484    703.0000     49.0297
           21           5      0.6667      0.0267   1406.1650    703.0000     49.0695
           21           6      0.6667      0.0333   1406.8824    703.0000     49.1094
           21           7      0.6667      0.0400   1407.6005    703.0000     49.1495
           21           8      0.6667      0.0467   1408.3194    703.0000     49.1896
           21           9      0.6667      0.0533   1409.0392    703.0000     49.2299
           21          10      0.6667      0.0600   1409.7599    703.0000     49.2703
           21          11      0.6667      0.0667   1410.4816    703.0000     49.3108
           21          12      0.6667      0.0733   1411.2043    703.0000     49.3514
           21          13      0.6667      0.0800   1411.9280    703.0000     49.3922
           21          14      0.6667      0.0867   1412.6527    703.0000     49.4330
           21          15      0.6667      0.0933   1413.3785    703.0000     49.4740
           21          16      0.6667      0.1000   1414.1053    703.0000     49.5151
           21          17      0.6667      0.1067   1414.8332    703.0000     49.5564
           21          18      0.6667      0.1133   1415.5621    703.0000     49.5978
           21          19      0.6667      0.1200   1416.2921    703.0000     49.6392
           21          20      0.6667      0.1267   1417.0231    703.0000     49.6809
           21          21      0.6667      0.1333   1417.7551    703.0000     49.7226
           21          22      0.6667      0.1400   1418.4881    703.0000     49.7645
           21          23      0.6667      0.1467   1419.2221    703.0000     49.8065
           21          24      0.6667      0.1533   1419.9569    703.0000     49.8486
           21          25      0.6667      0.1600   1420.6926    703.0000     49.8908
           21          26      0.6667      0.1667   1421.4290    703.0000     49.9331
           21          27      0.6667      0.1733   1422.1662    703.0000     49.9756
           21          28      0.6667      0.1800   1422.9041    703.0000     50.0181
           21          29      0.6667      0.1867   1423.6426    703.0000     50.0607
           21          30      0.6667      0.1933   1424.3815    703.0000     50.1035
           21          31      0.6667      0.2000   1425.1209    703.0000     50.1463
           22           1      0.7000      0.0000   1403.1580    703.0000     48.9028
           22           2      0.7000      0.0067   1403.8629    703.0000     48.9418
           22           3      0.7000      0.0133   1404.5689    703.0000     48.9809
           22           4      0.7000      0.0200   1405.2760    703.0000     49.0201
           22           5      0.7000      0.0267   1405.9845    703.0000     49.0595
           22           6      0.7000      0.0333   1406.6943    703.0000     49.0990
           22           7      0.7000      0.0400   1407.4056    703.0000     49.1386
           22           8      0.7000      0.0467   1408.1184    703.0000     49.1784
           22           9      0.7000      0.0533   1408.8328    703.0000     49.2183
           22          10      0.7000      0.0600   1409.5489    703.0000     49.2584
           22          11      0.7000      0.0667   1410.2666    703.0000     49.2987
           22          12      0.7000      0.0733   1410.9862    703.0000     49.3391
           22          13      0.7000      0.0800   1411.7076    703.0000     49.3797
           22          14      0.7000      0.0867   1412.4308    703.0000     49.4205
           22          15      0.7000      0.0933   1413.1559    703.0000     49.4614
           22          16      0.7000      0.1000   1413.8829    703.0000     49.5025
           22          17      0.7000      0.1067   1414.6118    703.0000     49.5438
           22          18      0.7000      0.1133   1415.3425    703.0000     49.5853
           22          19      0.7000      0.1200   1416.0752    703.0000     49.6269
           22          20      0.7000      0.1267   1416.8097    703.0000     49.6687
           22          21      0.7000      0.1333   1417.5461    703.0000     49.7107
           22          22      0.7000      0.1400   1418.2842    703.0000     49.7528
           22          23      0.7000      0.1467   1419.0241    703.0000     49.7951
           22          24      0.7000      0.1533   1419.7656    703.0000     49.8376
           22          25      0.7000      0.1600   1420.5088    703.0000     49.8802
           22          26      0.7000      0.1667   1421.2535    703.0000     49.9230
           22          27      0.7000      0.1733   1421.9996    703.0000     49.9659
           22          28      0.7000      0.1800   1422.7470    703.0000     50.0090
           22          29      0.7000      0.1867   1423.4956    703.0000     50.0522
           22          30      0.7000      0.1933   1424.2453    703.0000     50.0956
           22          31      0.7000      0.2000   1424.9960    703.0000     50.1391
           23           1      0.7333      0.0000   1402.9616    703.0000     48.8919
           23           2      0.7333      0.0067   1403.6530    703.0000     48.9302
           23           3      0.7333      0.0133   1404.3462    703.0000     48.9685
           23           4      0.7333      0.0200   1405.0414    703.0000     49.0071
           23           5      0.7333      0.0267   1405.7387    703.0000     49.0458
           23           6      0.7333      0.0333   1406.4382    703.0000     49.0847
           23           7      0.7333      0.0400   1407.1400    703.0000     49.1238
           23           8      0.7333      0.0467   1407.8443    703.0000     49.1631
           23           9      0.7333      0.0533   1408.5512    703.0000     49.2026
           23          10      0.7333      0.0600   1409.2607    703.0000     49.2423
           23          11      0.7333      0.0667   1409.9729    703.0000     49.2822
           23          12      0.7333      0.0733   1410.6880    703.0000     49.3224
           23          13      0.7333      0.0800   1411.4060    703.0000     49.3628
           23          14      0.7333      0.0867   1412.1269    703.0000     49.4034
           23          15      0.7333      0.0933   1412.8508    703.0000     49.4442
           23          16      0.7333      0.1000   1413.5778    703.0000     49.4853
           23          17      0.7333      0.1067   1414.3078    703.0000     49.5266
           23          18      0.7333      0.1133   1415.0408    703.0000     49.5682
           23          19      0.7333      0.1200   1415.7769    703.0000     49.6100
           23          20      0.7333      0.1267   1416.5160    703.0000     49.6520
           23          21      0.7333      0.1333   1417.2581    703.0000     49.6943
           23          22      0.7333      0.1400   1418.0031    703.0000     49.7368
           23          23      0.7333      0.1467   1418.7510    703.0000     49.7795
           23          24      0.7333      0.1533   1419.5016    703.0000     49.8225
           23          25      0.7333      0.1600   1420.2549    703.0000     49.8657
           23          26      0.7333      0.1667   1421.0107    703.0000     49.9091
           23          27      0.7333      0.1733   1421.7690    703.0000     49.9527
           23          28      0.7333      0.1800   1422.5295    703.0000     49.9965
           23          29      0.7333      0.1867   1423.2922    703.0000     50.0405
           23          30      0.7333      0.1933   1424.0568    703.0000     50.0847
           23          31      0.7333      0.2000   1424.8231    703.0000     50.1290
           24           1      0.7667      0.0000   1402.6974    703.0000     48.8774
           24           2      0.7667      0.0067   1403.3707    703.0000     48.9145
           24           3      0.7667      0.0133   1404.0467    703.0000     48.9519
           24           4      0.7667      0.0200   1404.7256    703.0000     48.9896
           24           5      0.7667      0.0267   1405.4077    703.0000     49.0274
           24           6      0.7667      0.0333   1406.0931    703.0000     49.0655
           24           7      0.7667      0.0400   1406.7819    703.0000     49.1038
           24           8      0.7667      0.0467   1407.4744    703.0000     49.1424
           24           9      0.7667      0.0533   1408.1707    703.0000     49.1813
           24          10      0.7667      0.0600   1408.8709    703.0000     49.2205
           24          11      0.7667      0.0667   1409.5753    703.0000     49.2599
           24          12      0.7667      0.0733   1410.2838    703.0000     49.2997
           24          13      0.7667      0.0800   1410.9967    703.0000     49.3397
           24          14      0.7667      0.0867   1411.7140    703.0000     49.3801
           24          15      0.7667      0.0933   1412.4358    703.0000     49.4208
           24          16      0.7667      0.1000   1413.1622    703.0000     49.4618
           24          17      0.7667      0.1067   1413.8932    703.0000     49.5031
           24          18      0.7667      0.1133   1414.6288    703.0000     49.5448
           24          19      0.7667      0.1200   1415.3690    703.0000     49.5868
           24          20      0.7667      0.1267   1416.1139    703.0000     49.6291
           24          21      0.7667      0.1333   1416.8633    703.0000     49.6718
           24          22      0.7667      0.1400   1417.6173    703.0000     49.7147
           24          23      0.7667      0.1467   1418.3757    703.0000     49.7581
           24          24      0.7667      0.1533   1419.1384    703.0000     49.8017
           24          25      0.7667      0.1600   1419.9054    703.0000     49.8456
           24          26      0.7667      0.1667   1420.6763    703.0000     49.8899
           24          27      0.7667      0.1733   1421.4511    703.0000     49.9344
           24          28      0.7667      0.1800   1422.2296    703.0000     49.9792
           24          29      0.7667      0.1867   1423.0114    703.0000     50.0243
           24          30      0.7667      0.1933   1423.7964    703.0000     50.0696
           24          31      0.7667      0.2000   1424.5843    703.0000     50.1152
           25           1      0.8000      0.0000   1402.3454    703.0000     48.8579
           25           2      0.8000      0.0067   1402.9944    703.0000     48.8938
           25           3      0.8000      0.0133   1403.6474    703.0000     48.9298
           25           4      0.8000      0.0200   1404.3044    703.0000     48.9662
           25           5      0.8000      0.0267   1404.9658    703.0000     49.0029
           25           6      0.8000      0.0333   1405.6319    703.0000     49.0399
           25           7      0.8000      0.0400   1406.3028    703.0000     49.0772
           25           8      0.8000      0.0467   1406.9789    703.0000     49.1148
           25           9      0.8000      0.0533   1407.6604    703.0000     49.1528
           25          10      0.8000      0.0600   1408.3475    703.0000     49.1912
           25          11      0.8000      0.0667   1409.0404    703.0000     49.2300
           25          12      0.8000      0.0733   1409.7392    703.0000     49.2691
           25          13      0.8000      0.0800   1410.4443    703.0000     49.3087
           25          14      0.8000      0.0867   1411.1557    703.0000     49.3487
           25          15      0.8000      0.0933   1411.8736    703.0000     49.3891
           25          16      0.8000      0.1000   1412.5981    703.0000     49.4299
           25          17      0.8000      0.1067   1413.3294    703.0000     49.4712
           25          18      0.8000      0.1133   1414.0674    703.0000     49.5130
           25          19      0.8000      0.1200   1414.8123    703.0000     49.5552
           25          20      0.8000      0.1267   1415.5640    703.0000     49.5979
           25          21      0.8000      0.1333   1416.3225    703.0000     49.6410
           25          22      0.8000      0.1400   1417.0879    703.0000     49.6846
           25          23      0.8000      0.1467   1417.8599    703.0000     49.7286
           25          24      0.8000      0.1533   1418.6385    703.0000     49.7731
           25          25      0.8000      0.1600   1419.4235    703.0000     49.8180
           25          26      0.8000      0.1667   1420.2147    703.0000     49.8633
           25          27      0.8000      0.1733   1421.0118    703.0000     49.9091
           25          28      0.8000      0.1800   1421.8146    703.0000     49.9553
           25          29      0.8000      0.1867   1422.6227    703.0000     50.0019
           25          30      0.8000      0.1933   1423.4358    703.0000     50.0488
           25          31      0.8000      0.2000   1424.2535    703.0000     50.0961
           26           1      0.8333      0.0000   1401.8809    703.0000     48.8323
           26           2      0.8333      0.0067   1402.4979    703.0000     48.8663
           26           3      0.8333      0.0133   1403.1200    703.0000     48.9007
           26           4      0.8333      0.0200   1403.7477    703.0000     48.9354
           26           5      0.8333      0.0267   1404.3812    703.0000     48.9705
           26           6      0.8333      0.0333   1405.0209    703.0000     49.0059
           26           7      0.8333      0.0400   1405.6672    703.0000     49.0418
           26           8      0.8333      0.0467   1406.3204    703.0000     49.0781
           26           9      0.8333      0.0533   1406.9809    703.0000     49.1149
           26          10      0.8333      0.0600   1407.6490    703.0000     49.1522
           26          11      0.8333      0.0667   1408.3250    703.0000     49.1899
           26          12      0.8333      0.0733   1409.0092    703.0000     49.2282
           26          13      0.8333      0.0800   1409.7020    703.0000     49.2670
           26          14      0.8333      0.0867   1410.4035    703.0000     49.3064
           26          15      0.8333      0.0933   1411.1141    703.0000     49.3463
           26          16      0.8333      0.1000   1411.8341    703.0000     49.3869
           26          17      0.8333      0.1067   1412.5636    703.0000     49.4280
           26          18      0.8333      0.1133   1413.3027    703.0000     49.4697
           26          19      0.8333      0.1200   1414.0517    703.0000     49.5121
           26          20      0.8333      0.1267   1414.8107    703.0000     49.5551
           26          21      0.8333      0.1333   1415.5797    703.0000     49.5988
           26          22      0.8333      0.1400   1416.3587    703.0000     49.6430
           26          23      0.8333      0.1467   1417.1477    703.0000     49.6880
           26          24      0.8333      0.1533   1417.9465    703.0000     49.7335
           26          25      0.8333      0.1600   1418.7551    703.0000     49.7797
           26          26      0.8333      0.1667   1419.5731    703.0000     49.8266
           26          27      0.8333      0.1733   1420.4002    703.0000     49.8740
           26          28      0.8333      0.1800   1421.2361    703.0000     49.9220
           26          29      0.8333      0.1867   1422.0803    703.0000     49.9706
           26          30      0.8333      0.1933   1422.9322    703.0000     50.0197
           26          31      0.8333      0.2000   1423.7914    703.0000     50.0693
           27           1      0.8667      0.0000   1401.2754    703.0000     48.7990
           27           2      0.8667      0.0067   1401.8505    703.0000     48.8307
           27           3      0.8667      0.0133   1402.4320    703.0000     48.8627
           27           4      0.8667      0.0200   1403.0205    703.0000     48.8952
           27           5      0.8667      0.0267   1403.6165    703.0000     48.9281
           27           6      0.8667      0.0333   1404.2204    703.0000     48.9616
           27           7      0.8667      0.0400   1404.8326    703.0000     48.9955
           27           8      0.8667      0.0467   1405.4537    703.0000     49.0300
           27           9      0.8667      0.0533   1406.0842    703.0000     49.0650
           27          10      0.8667      0.0600   1406.7246    703.0000     49.1006
           27          11      0.8667      0.0667   1407.3752    703.0000     49.1369
           27          12      0.8667      0.0733   1408.0368    703.0000     49.1738
           27          13      0.8667      0.0800   1408.7096    703.0000     49.2115
           27          14      0.8667      0.0867   1409.3943    703.0000     49.2498
           27          15      0.8667      0.0933   1410.0913    703.0000     49.2889
           27          16      0.8667      0.1000   1410.8010    703.0000     49.3287
           27          17      0.8667      0.1067   1411.5239    703.0000     49.3694
           27          18      0.8667      0.1133   1412.2603    703.0000     49.4109
           27          19      0.8667      0.1200   1413.0107    703.0000     49.4532
           27          20      0.8667      0.1267   1413.7753    703.0000     49.4965
           27          21      0.8667      0.1333   1414.5544    703.0000     49.5406
           27          22      0.8667      0.1400   1415.3483    703.0000     49.5856
           27          23      0.8667      0.1467   1416.1569    703.0000     49.6316
           27          24      0.8667      0.1533   1416.9803    703.0000     49.6784
           27          25      0.8667      0.1600   1417.8185    703.0000     49.7262
           27          26      0.8667      0.1667   1418.6712    703.0000     49.7749
           27          27      0.8667      0.1733   1419.5381    703.0000     49.8246
           27          28      0.8667      0.1800   1420.4187    703.0000     49.8751
           27          29      0.8667      0.1867   1421.3125    703.0000     49.9264
           27          30      0.8667      0.1933   1422.2187    703.0000     49.9786
           27          31      0.8667      0.2000   1423.1364    703.0000     50.0315
           28           1      0.9000      0.0000   1400.4995    703.0000     48.7564
           28           2      0.9000      0.0067   1401.0204    703.0000     48.7850
           28           3      0.9000      0.0133   1401.5492    703.0000     48.8141
           28           4      0.9000      0.0200   1402.0861    703.0000     48.8436
           28           5      0.9000      0.0267   1402.6319    703.0000     48.8737
           28           6      0.9000      0.0333   1403.1872    703.0000     48.9044
           28           7      0.9000      0.0400   1403.7525    703.0000     48.9357
           28           8      0.9000      0.0467   1404.3285    703.0000     48.9675
           28           9      0.9000      0.0533   1404.9159    703.0000     49.0001
           28          10      0.9000      0.0600   1405.5154    703.0000     49.0334
           28          11      0.9000      0.0667   1406.1277    703.0000     49.0674
           28          12      0.9000      0.0733   1406.7536    703.0000     49.1023
           28          13      0.9000      0.0800   1407.3939    703.0000     49.1379
           28          14      0.9000      0.0867   1408.0493    703.0000     49.1745
           28          15      0.9000      0.0933   1408.7207    703.0000     49.2121
           28          16      0.9000      0.1000   1409.4089    703.0000     49.2506
           28          17      0.9000      0.1067   1410.1146    703.0000     49.2902
           28          18      0.9000      0.1133   1410.8389    703.0000     49.3309
           28          19      0.9000      0.1200   1411.5823    703.0000     49.3727
           28          20      0.9000      0.1267   1412.3458    703.0000     49.4157
           28          21      0.9000      0.1333   1413.1301    703.0000     49.4600
           28          22      0.9000      0.1400   1413.9357    703.0000     49.5055
           28          23      0.9000      0.1467   1414.7632    703.0000     49.5524
           28          24      0.9000      0.1533   1415.6132    703.0000     49.6007
           28          25      0.9000      0.1600   1416.4858    703.0000     49.6503
           28          26      0.9000      0.1667   1417.3812    703.0000     49.7013
           28          27      0.9000      0.1733   1418.2993    703.0000     49.7537
           28          28      0.9000      0.1800   1419.2397    703.0000     49.8075
           28          29      0.9000      0.1867   1420.2017    703.0000     49.8626
           28          30      0.9000      0.1933   1421.1843    703.0000     49.9190
           28          31      0.9000      0.2000   1422.1863    703.0000     49.9767
           29           1      0.9333      0.0000   1399.5275    703.0000     48.7030
           29           2      0.9333      0.0067   1399.9804    703.0000     48.7279
           29           3      0.9333      0.0133   1400.4417    703.0000     48.7532
           29           4      0.9333      0.0200   1400.9119    703.0000     48.7790
           29           5      0.9333      0.0267   1401.3917    703.0000     48.8054
           29           6      0.9333      0.0333   1401.8819    703.0000     48.8324
           29           7      0.9333      0.0400   1402.3832    703.0000     48.8600
           29           8      0.9333      0.0467   1402.8963    703.0000     48.8883
           29           9      0.9333      0.0533   1403.4222    703.0000     48.9174
           29          10      0.9333      0.0600   1403.9618    703.0000     48.9472
           29          11      0.9333      0.0667   1404.5161    703.0000     48.9779
           29          12      0.9333      0.0733   1405.0861    703.0000     49.0096
           29          13      0.9333      0.0800   1405.6731    703.0000     49.0421
           29          14      0.9333      0.0867   1406.2781    703.0000     49.0758
           29          15      0.9333      0.0933   1406.9025    703.0000     49.1106
           29          16      0.9333      0.1000   1407.5477    703.0000     49.1465
           29          17      0.9333      0.1067   1408.2151    703.0000     49.1838
           29          18      0.9333      0.1133   1408.9063    703.0000     49.2225
           29          19      0.9333      0.1200   1409.6228    703.0000     49.2626
           29          20      0.9333      0.1267   1410.3664    703.0000     49.3043
           29          21      0.9333      0.1333   1411.1386    703.0000     49.3477
           29          22      0.9333      0.1400   1411.9413    703.0000     49.3929
           29          23      0.9333      0.1467   1412.7762    703.0000     49.4400
           29          24      0.9333      0.1533   1413.6448    703.0000     49.4891
           29          25      0.9333      0.1600   1414.5487    703.0000     49.5403
           29          26      0.9333      0.1667   1415.4892    703.0000     49.5936
           29          27      0.9333      0.1733   1416.4672    703.0000     49.6492
           29          28      0.9333      0.1800   1417.4833    703.0000     49.7071
           29          29      0.9333      0.1867   1418.5375    703.0000     49.7673
           29          30      0.9333      0.1933   1419.6289    703.0000     49.8298
           29          31      0.9333      0.2000   1420.7558    703.0000     49.8944
           30           1      0.9667      0.0000   1398.3466    703.0000     48.6384
           30           2      0.9667      0.0067   1398.7162    703.0000     48.6586
           30           3      0.9667      0.0133   1399.0937    703.0000     48.6793
           30           4      0.9667      0.0200   1399.4799    703.0000     48.7004
           30           5      0.9667      0.0267   1399.8752    703.0000     48.7221
           30           6      0.9667      0.0333   1400.2805    703.0000     48.7443
           30           7      0.9667      0.0400   1400.6966    703.0000     48.7672
           30           8      0.9667      0.0467   1401.1243    703.0000     48.7907
           30           9      0.9667      0.0533   1401.5646    703.0000     48.8149
           30          10      0.9667      0.0600   1402.0184    703.0000     48.8399
           30          11      0.9667      0.0667   1402.4871    703.0000     48.8658
           30          12      0.9667      0.0733   1402.9719    703.0000     48.8925
           30          13      0.9667      0.0800   1403.4741    703.0000     48.9203
           30          14      0.9667      0.0867   1403.9954    703.0000     48.9491
           30          15      0.9667      0.0933   1404.5375    703.0000     48.9791
           30          16      0.9667      0.1000   1405.1023    703.0000     49.0104
           30          17      0.9667      0.1067   1405.6920    703.0000     49.0432
           30          18      0.9667      0.1133   1406.3089    703.0000     49.0775
           30          19      0.9667      0.1200   1406.9558    703.0000     49.1135
           30          20      0.9667      0.1267   1407.6356    703.0000     49.1514
           30          21      0.9667      0.1333   1408.3516    703.0000     49.1914
           30          22      0.9667      0.1400   1409.1074    703.0000     49.2337
           30          23      0.9667      0.1467   1409.9072    703.0000     49.2785
           30          24      0.9667      0.1533   1410.7554    703.0000     49.3262
           30          25      0.9667      0.1600   1411.6568    703.0000     49.3769
           30          26      0.9667      0.1667   1412.6165    703.0000     49.4310
           30          27      0.9667      0.1733   1413.6397    703.0000     49.4888
           30          28      0.9667      0.1800   1414.7316    703.0000     49.5506
           30          29      0.9667      0.1867   1415.8969    703.0000     49.6168
           30          30      0.9667      0.1933   1417.1387    703.0000     49.6875
           30          31      0.9667      0.2000   1418.4580    703.0000     49.7628
           31           1      1.0000      0.0000   1396.9684    703.0000     48.5632
           31           2      1.0000      0.0067   1397.2401    703.0000     48.5780
           31           3      1.0000      0.0133   1397.5181    703.0000     48.5932
           31           4      1.0000      0.0200   1397.8028    703.0000     48.6087
           31           5      1.0000      0.0267   1398.0947    703.0000     48.6247
           31           6      1.0000      0.0333   1398.3944    703.0000     48.6410
           31           7      1.0000      0.0400   1398.7026    703.0000     48.6579
           31           8      1.0000      0.0467   1399.0199    703.0000     48.6752
           31           9      1.0000      0.0533   1399.3472    703.0000     48.6932
           31          10      1.0000      0.0600   1399.6854    703.0000     48.7117
           31          11      1.0000      0.0667   1400.0354    703.0000     48.7309
           31          12      1.0000      0.0733   1400.3983    703.0000     48.7508
           31          13      1.0000      0.0800   1400.7755    703.0000     48.7715
           31          14      1.0000      0.0867   1401.1684    703.0000     48.7931
           31          15      1.0000      0.0933   1401.5785    703.0000     48.8157
           31          16      1.0000      0.1000   1402.0077    703.0000     48.8393
           31          17      1.0000      0.1067   1402.4583    703.0000     48.8642
           31          18      1.0000      0.1133   1402.9326    703.0000     48.8903
           31          19      1.0000      0.1200   1403.4338    703.0000     48.9180
           31          20      1.0000      0.1267   1403.9651    703.0000     48.9474
           31          21      1.0000      0.1333   1404.5309    703.0000     48.9788
           31          22      1.0000      0.1400   1405.1362    703.0000     49.0123
           31          23      1.0000      0.1467   1405.7873    703.0000     49.0485
           31          24      1.0000      0.1533   1406.4919    703.0000     49.0877
           31          25      1.0000      0.1600   1407.2598    703.0000     49.1305
           31          26      1.0000      0.1667   1408.1035    703.0000     49.1776
           31          27      1.0000      0.1733   1409.0390    703.0000     49.2299
           31          28      1.0000      0.1800   1410.0876    703.0000     49.2887
           31          29      1.0000      0.1867   1411.2771    703.0000     49.3555
           31          30      1.0000      0.1933   1412.6453    703.0000     49.4326
           31          31      1.0000      0.2000   1414.2431    703.0000     49.5229
