 ====================================================================================
               Transient state solution for a 2D rectangular plate
                    for applications in steel reheating
                 e.g. Reheating furnaces for rolling processing
 ====================================================================================
 Author: Dickson Alves de Souza

 Based on lectures by professor Roberto Parreiras Tavares

 and book Numerical Heat Transfer and Fluid Flow
 by Suhas V. Patankar (1980)

 Federal University of Minas Gerais (UFMG)
 October 26th, 2017
 ====================================================================================
                              Input parameters:

 Lenght in X direction (meters):           1.0000
 Lenght in Y direction (meters):           0.2000
 Nodes in X direction:                         31
 Nodes in Y direction:                         31
 ====================================================================================

                       STAGE                1/  5
                       START Time:         0.0000
                       END Time:        1140.0000
                       Iterations:             2222

 ====================================================================================
 Temperature of fluid at left face (T left):             1223.1500
 Temperature of fluid at right face (T right):           1223.1500
 Temperature of fluid at bottom face (T bottom):         1223.1500
 Temperature of fluid at top face (T top):               1223.1500
 ------------------------------------------------------------------------------------
 Heat transfer coefficient at left face (H left):          50.0000
 Heat transfer coefficient at right face (H right):        50.0000
 Heat transfer coefficient at bottom face (H bottom):       8.0000
 Heat transfer coefficient at top face (H top):           150.0000
 ====================================================================================


 ====================================================================================

                       STAGE                2/  5
                       START Time:      1140.0000
                       END Time:        3060.0000
                       Iterations:             2222

 ====================================================================================
 Temperature of fluid at left face (T left):             1423.1500
 Temperature of fluid at right face (T right):           1423.1500
 Temperature of fluid at bottom face (T bottom):         1423.1500
 Temperature of fluid at top face (T top):               1423.1500
 ------------------------------------------------------------------------------------
 Heat transfer coefficient at left face (H left):          50.0000
 Heat transfer coefficient at right face (H right):        50.0000
 Heat transfer coefficient at bottom face (H bottom):       8.0000
 Heat transfer coefficient at top face (H top):           150.0000
 ====================================================================================


 ====================================================================================

                       STAGE                3/  5
                       START Time:      3060.0000
                       END Time:        4980.0000
                       Iterations:             2222

 ====================================================================================
 Temperature of fluid at left face (T left):             1513.1500
 Temperature of fluid at right face (T right):           1513.1500
 Temperature of fluid at bottom face (T bottom):         1513.1500
 Temperature of fluid at top face (T top):               1513.1500
 ------------------------------------------------------------------------------------
 Heat transfer coefficient at left face (H left):          50.0000
 Heat transfer coefficient at right face (H right):        50.0000
 Heat transfer coefficient at bottom face (H bottom):       8.0000
 Heat transfer coefficient at top face (H top):           150.0000
 ====================================================================================


 ====================================================================================

                       STAGE                4/  5
                       START Time:      4980.0000
                       END Time:        8400.0000
                       Iterations:             2222

 ====================================================================================
 Temperature of fluid at left face (T left):             1503.1500
 Temperature of fluid at right face (T right):           1503.1500
 Temperature of fluid at bottom face (T bottom):         1503.1500
 Temperature of fluid at top face (T top):               1523.1500
 ------------------------------------------------------------------------------------
 Heat transfer coefficient at left face (H left):          50.0000
 Heat transfer coefficient at right face (H right):        50.0000
 Heat transfer coefficient at bottom face (H bottom):       8.0000
 Heat transfer coefficient at top face (H top):           150.0000
 ====================================================================================


 ====================================================================================

                       STAGE                5/  5
                       START Time:      8400.0000
                       END Time:       18400.0000
                       Iterations:             2222

 ====================================================================================
 Temperature of fluid at left face (T left):             1393.1500
 Temperature of fluid at right face (T right):           1393.1500
 Temperature of fluid at bottom face (T bottom):         1393.1500
 Temperature of fluid at top face (T top):               1433.1500
 ------------------------------------------------------------------------------------
 Heat transfer coefficient at left face (H left):          50.0000
 Heat transfer coefficient at right face (H right):        50.0000
 Heat transfer coefficient at bottom face (H bottom):       8.0000
 Heat transfer coefficient at top face (H top):           150.0000
 ====================================================================================


 SOLUTION of LINEAR SYSTEM: TDMA (tri-diagonal matrix algorithm)
      ADI approach employed in solution.
 Tolerance:       0.0010

 ====================================================================================
                    Calculation Results
 Current time:    17400.000000000000       seconds
 Maximum Temperature :    1425.3163732087066
 Minimum Temperature :    1396.9599484886226
 Average(algebraic, non-weigthed) Temperature :    1411.8525848002664
 ====================================================================================
            I           J        X(m)        Y(m)        T(K)  Cp(J/kg.K) K(W/sq-m.K)
 ====================================================================================
            1           1      0.0000      0.0000   1396.9600    703.0000     48.5628
            1           2      0.0000      0.0067   1397.2312    703.0000     48.5776
            1           3      0.0000      0.0133   1397.5087    703.0000     48.5927
            1           4      0.0000      0.0200   1397.7928    703.0000     48.6082
            1           5      0.0000      0.0267   1398.0843    703.0000     48.6241
            1           6      0.0000      0.0333   1398.3836    703.0000     48.6404
            1           7      0.0000      0.0400   1398.6913    703.0000     48.6573
            1           8      0.0000      0.0467   1399.0083    703.0000     48.6746
            1           9      0.0000      0.0533   1399.3353    703.0000     48.6925
            1          10      0.0000      0.0600   1399.6732    703.0000     48.7110
            1          11      0.0000      0.0667   1400.0230    703.0000     48.7302
            1          12      0.0000      0.0733   1400.3858    703.0000     48.7501
            1          13      0.0000      0.0800   1400.7629    703.0000     48.7708
            1          14      0.0000      0.0867   1401.1557    703.0000     48.7924
            1          15      0.0000      0.0933   1401.5658    703.0000     48.8150
            1          16      0.0000      0.1000   1401.9951    703.0000     48.8386
            1          17      0.0000      0.1067   1402.4457    703.0000     48.8635
            1          18      0.0000      0.1133   1402.9202    703.0000     48.8897
            1          19      0.0000      0.1200   1403.4215    703.0000     48.9174
            1          20      0.0000      0.1267   1403.9531    703.0000     48.9468
            1          21      0.0000      0.1333   1404.5191    703.0000     48.9781
            1          22      0.0000      0.1400   1405.1248    703.0000     49.0117
            1          23      0.0000      0.1467   1405.7762    703.0000     49.0479
            1          24      0.0000      0.1533   1406.4812    703.0000     49.0871
            1          25      0.0000      0.1600   1407.2496    703.0000     49.1299
            1          26      0.0000      0.1667   1408.0937    703.0000     49.1770
            1          27      0.0000      0.1733   1409.0297    703.0000     49.2294
            1          28      0.0000      0.1800   1410.0788    703.0000     49.2882
            1          29      0.0000      0.1867   1411.2690    703.0000     49.3550
            1          30      0.0000      0.1933   1412.6378    703.0000     49.4322
            1          31      0.0000      0.2000   1414.2362    703.0000     49.5225
            2           1      0.0333      0.0000   1398.3344    703.0000     48.6378
            2           2      0.0333      0.0067   1398.7032    703.0000     48.6579
            2           3      0.0333      0.0133   1399.0799    703.0000     48.6785
            2           4      0.0333      0.0200   1399.4653    703.0000     48.6996
            2           5      0.0333      0.0267   1399.8600    703.0000     48.7213
            2           6      0.0333      0.0333   1400.2647    703.0000     48.7435
            2           7      0.0333      0.0400   1400.6802    703.0000     48.7663
            2           8      0.0333      0.0467   1401.1074    703.0000     48.7898
            2           9      0.0333      0.0533   1401.5473    703.0000     48.8140
            2          10      0.0333      0.0600   1402.0008    703.0000     48.8389
            2          11      0.0333      0.0667   1402.4692    703.0000     48.8648
            2          12      0.0333      0.0733   1402.9537    703.0000     48.8915
            2          13      0.0333      0.0800   1403.4558    703.0000     48.9192
            2          14      0.0333      0.0867   1403.9770    703.0000     48.9481
            2          15      0.0333      0.0933   1404.5191    703.0000     48.9781
            2          16      0.0333      0.1000   1405.0839    703.0000     49.0094
            2          17      0.0333      0.1067   1405.6737    703.0000     49.0422
            2          18      0.0333      0.1133   1406.2908    703.0000     49.0765
            2          19      0.0333      0.1200   1406.9380    703.0000     49.1125
            2          20      0.0333      0.1267   1407.6181    703.0000     49.1505
            2          21      0.0333      0.1333   1408.3345    703.0000     49.1905
            2          22      0.0333      0.1400   1409.0908    703.0000     49.2328
            2          23      0.0333      0.1467   1409.8911    703.0000     49.2776
            2          24      0.0333      0.1533   1410.7399    703.0000     49.3253
            2          25      0.0333      0.1600   1411.6419    703.0000     49.3760
            2          26      0.0333      0.1667   1412.6022    703.0000     49.4302
            2          27      0.0333      0.1733   1413.6262    703.0000     49.4880
            2          28      0.0333      0.1800   1414.7189    703.0000     49.5499
            2          29      0.0333      0.1867   1415.8850    703.0000     49.6161
            2          30      0.0333      0.1933   1417.1277    703.0000     49.6868
            2          31      0.0333      0.2000   1418.4480    703.0000     49.7622
            3           1      0.0667      0.0000   1399.5123    703.0000     48.7022
            3           2      0.0667      0.0067   1399.9642    703.0000     48.7270
            3           3      0.0667      0.0133   1400.4245    703.0000     48.7522
            3           4      0.0667      0.0200   1400.8938    703.0000     48.7780
            3           5      0.0667      0.0267   1401.3728    703.0000     48.8044
            3           6      0.0667      0.0333   1401.8622    703.0000     48.8313
            3           7      0.0667      0.0400   1402.3627    703.0000     48.8589
            3           8      0.0667      0.0467   1402.8753    703.0000     48.8872
            3           9      0.0667      0.0533   1403.4006    703.0000     48.9162
            3          10      0.0667      0.0600   1403.9398    703.0000     48.9460
            3          11      0.0667      0.0667   1404.4937    703.0000     48.9767
            3          12      0.0667      0.0733   1405.0635    703.0000     49.0083
            3          13      0.0667      0.0800   1405.6502    703.0000     49.0409
            3          14      0.0667      0.0867   1406.2551    703.0000     49.0745
            3          15      0.0667      0.0933   1406.8795    703.0000     49.1093
            3          16      0.0667      0.1000   1407.5248    703.0000     49.1453
            3          17      0.0667      0.1067   1408.1924    703.0000     49.1825
            3          18      0.0667      0.1133   1408.8838    703.0000     49.2212
            3          19      0.0667      0.1200   1409.6006    703.0000     49.2613
            3          20      0.0667      0.1267   1410.3446    703.0000     49.3031
            3          21      0.0667      0.1333   1411.1173    703.0000     49.3465
            3          22      0.0667      0.1400   1411.9206    703.0000     49.3917
            3          23      0.0667      0.1467   1412.7560    703.0000     49.4389
            3          24      0.0667      0.1533   1413.6254    703.0000     49.4880
            3          25      0.0667      0.1600   1414.5301    703.0000     49.5392
            3          26      0.0667      0.1667   1415.4714    703.0000     49.5926
            3          27      0.0667      0.1733   1416.4504    703.0000     49.6483
            3          28      0.0667      0.1800   1417.4675    703.0000     49.7062
            3          29      0.0667      0.1867   1418.5227    703.0000     49.7665
            3          30      0.0667      0.1933   1419.6152    703.0000     49.8290
            3          31      0.0667      0.2000   1420.7432    703.0000     49.8937
            4           1      0.1000      0.0000   1400.4821    703.0000     48.7554
            4           2      0.1000      0.0067   1401.0019    703.0000     48.7840
            4           3      0.1000      0.0133   1401.5295    703.0000     48.8130
            4           4      0.1000      0.0200   1402.0654    703.0000     48.8425
            4           5      0.1000      0.0267   1402.6102    703.0000     48.8725
            4           6      0.1000      0.0333   1403.1646    703.0000     48.9032
            4           7      0.1000      0.0400   1403.7291    703.0000     48.9344
            4           8      0.1000      0.0467   1404.3044    703.0000     48.9662
            4           9      0.1000      0.0533   1404.8912    703.0000     48.9987
            4          10      0.1000      0.0600   1405.4902    703.0000     49.0320
            4          11      0.1000      0.0667   1406.1021    703.0000     49.0660
            4          12      0.1000      0.0733   1406.7277    703.0000     49.1008
            4          13      0.1000      0.0800   1407.3678    703.0000     49.1365
            4          14      0.1000      0.0867   1408.0230    703.0000     49.1731
            4          15      0.1000      0.0933   1408.6944    703.0000     49.2106
            4          16      0.1000      0.1000   1409.3826    703.0000     49.2491
            4          17      0.1000      0.1067   1410.0886    703.0000     49.2887
            4          18      0.1000      0.1133   1410.8131    703.0000     49.3294
            4          19      0.1000      0.1200   1411.5570    703.0000     49.3713
            4          20      0.1000      0.1267   1412.3209    703.0000     49.4143
            4          21      0.1000      0.1333   1413.1057    703.0000     49.4586
            4          22      0.1000      0.1400   1413.9119    703.0000     49.5042
            4          23      0.1000      0.1467   1414.7402    703.0000     49.5511
            4          24      0.1000      0.1533   1415.5910    703.0000     49.5994
            4          25      0.1000      0.1600   1416.4645    703.0000     49.6491
            4          26      0.1000      0.1667   1417.3609    703.0000     49.7001
            4          27      0.1000      0.1733   1418.2801    703.0000     49.7526
            4          28      0.1000      0.1800   1419.2216    703.0000     49.8064
            4          29      0.1000      0.1867   1420.1847    703.0000     49.8616
            4          30      0.1000      0.1933   1421.1686    703.0000     49.9181
            4          31      0.1000      0.2000   1422.1719    703.0000     49.9759
            5           1      0.1333      0.0000   1401.2559    703.0000     48.7979
            5           2      0.1333      0.0067   1401.8296    703.0000     48.8295
            5           3      0.1333      0.0133   1402.4099    703.0000     48.8615
            5           4      0.1333      0.0200   1402.9973    703.0000     48.8939
            5           5      0.1333      0.0267   1403.5921    703.0000     48.9268
            5           6      0.1333      0.0333   1404.1950    703.0000     48.9602
            5           7      0.1333      0.0400   1404.8064    703.0000     48.9940
            5           8      0.1333      0.0467   1405.4267    703.0000     49.0285
            5           9      0.1333      0.0533   1406.0565    703.0000     49.0635
            5          10      0.1333      0.0600   1406.6963    703.0000     49.0991
            5          11      0.1333      0.0667   1407.3465    703.0000     49.1353
            5          12      0.1333      0.0733   1408.0077    703.0000     49.1722
            5          13      0.1333      0.0800   1408.6803    703.0000     49.2098
            5          14      0.1333      0.0867   1409.3648    703.0000     49.2481
            5          15      0.1333      0.0933   1410.0618    703.0000     49.2872
            5          16      0.1333      0.1000   1410.7715    703.0000     49.3271
            5          17      0.1333      0.1067   1411.4946    703.0000     49.3677
            5          18      0.1333      0.1133   1412.2314    703.0000     49.4093
            5          19      0.1333      0.1200   1412.9822    703.0000     49.4516
            5          20      0.1333      0.1267   1413.7473    703.0000     49.4949
            5          21      0.1333      0.1333   1414.5271    703.0000     49.5390
            5          22      0.1333      0.1400   1415.3216    703.0000     49.5841
            5          23      0.1333      0.1467   1416.1311    703.0000     49.6301
            5          24      0.1333      0.1533   1416.9554    703.0000     49.6770
            5          25      0.1333      0.1600   1417.7946    703.0000     49.7249
            5          26      0.1333      0.1667   1418.6484    703.0000     49.7736
            5          27      0.1333      0.1733   1419.5165    703.0000     49.8233
            5          28      0.1333      0.1800   1420.3984    703.0000     49.8739
            5          29      0.1333      0.1867   1421.2935    703.0000     49.9253
            5          30      0.1333      0.1933   1422.2011    703.0000     49.9776
            5          31      0.1333      0.2000   1423.1203    703.0000     50.0306
            6           1      0.1667      0.0000   1401.8593    703.0000     48.8311
            6           2      0.1667      0.0067   1402.4748    703.0000     48.8651
            6           3      0.1667      0.0133   1403.0956    703.0000     48.8993
            6           4      0.1667      0.0200   1403.7219    703.0000     48.9340
            6           5      0.1667      0.0267   1404.3542    703.0000     48.9690
            6           6      0.1667      0.0333   1404.9929    703.0000     49.0044
            6           7      0.1667      0.0400   1405.6382    703.0000     49.0402
            6           8      0.1667      0.0467   1406.2906    703.0000     49.0765
            6           9      0.1667      0.0533   1406.9503    703.0000     49.1132
            6          10      0.1667      0.0600   1407.6177    703.0000     49.1504
            6          11      0.1667      0.0667   1408.2932    703.0000     49.1882
            6          12      0.1667      0.0733   1408.9770    703.0000     49.2264
            6          13      0.1667      0.0800   1409.6695    703.0000     49.2652
            6          14      0.1667      0.0867   1410.3709    703.0000     49.3046
            6          15      0.1667      0.0933   1411.0815    703.0000     49.3445
            6          16      0.1667      0.1000   1411.8015    703.0000     49.3850
            6          17      0.1667      0.1067   1412.5312    703.0000     49.4262
            6          18      0.1667      0.1133   1413.2707    703.0000     49.4679
            6          19      0.1667      0.1200   1414.0202    703.0000     49.5103
            6          20      0.1667      0.1267   1414.7798    703.0000     49.5534
            6          21      0.1667      0.1333   1415.5494    703.0000     49.5970
            6          22      0.1667      0.1400   1416.3293    703.0000     49.6414
            6          23      0.1667      0.1467   1417.1191    703.0000     49.6863
            6          24      0.1667      0.1533   1417.9190    703.0000     49.7320
            6          25      0.1667      0.1600   1418.7287    703.0000     49.7782
            6          26      0.1667      0.1667   1419.5479    703.0000     49.8251
            6          27      0.1667      0.1733   1420.3763    703.0000     49.8726
            6          28      0.1667      0.1800   1421.2136    703.0000     49.9207
            6          29      0.1667      0.1867   1422.0593    703.0000     49.9694
            6          30      0.1667      0.1933   1422.9128    703.0000     50.0186
            6          31      0.1667      0.2000   1423.7735    703.0000     50.0683
            7           1      0.2000      0.0000   1402.3219    703.0000     48.8566
            7           2      0.2000      0.0067   1402.9693    703.0000     48.8924
            7           3      0.2000      0.0133   1403.6207    703.0000     48.9284
            7           4      0.2000      0.0200   1404.2763    703.0000     48.9647
            7           5      0.2000      0.0267   1404.9364    703.0000     49.0012
            7           6      0.2000      0.0333   1405.6013    703.0000     49.0382
            7           7      0.2000      0.0400   1406.2712    703.0000     49.0754
            7           8      0.2000      0.0467   1406.9463    703.0000     49.1130
            7           9      0.2000      0.0533   1407.6270    703.0000     49.1510
            7          10      0.2000      0.0600   1408.3134    703.0000     49.1893
            7          11      0.2000      0.0667   1409.0057    703.0000     49.2280
            7          12      0.2000      0.0733   1409.7042    703.0000     49.2672
            7          13      0.2000      0.0800   1410.4089    703.0000     49.3067
            7          14      0.2000      0.0867   1411.1202    703.0000     49.3467
            7          15      0.2000      0.0933   1411.8380    703.0000     49.3871
            7          16      0.2000      0.1000   1412.5627    703.0000     49.4279
            7          17      0.2000      0.1067   1413.2941    703.0000     49.4693
            7          18      0.2000      0.1133   1414.0325    703.0000     49.5110
            7          19      0.2000      0.1200   1414.7779    703.0000     49.5532
            7          20      0.2000      0.1267   1415.5302    703.0000     49.5959
            7          21      0.2000      0.1333   1416.2895    703.0000     49.6391
            7          22      0.2000      0.1400   1417.0557    703.0000     49.6827
            7          23      0.2000      0.1467   1417.8287    703.0000     49.7268
            7          24      0.2000      0.1533   1418.6084    703.0000     49.7714
            7          25      0.2000      0.1600   1419.3947    703.0000     49.8163
            7          26      0.2000      0.1667   1420.1872    703.0000     49.8618
            7          27      0.2000      0.1733   1420.9858    703.0000     49.9076
            7          28      0.2000      0.1800   1421.7901    703.0000     49.9539
            7          29      0.2000      0.1867   1422.5998    703.0000     50.0005
            7          30      0.2000      0.1933   1423.4146    703.0000     50.0476
            7          31      0.2000      0.2000   1424.2340    703.0000     50.0949
            8           1      0.2333      0.0000   1402.6721    703.0000     48.8760
            8           2      0.2333      0.0067   1403.3436    703.0000     48.9130
            8           3      0.2333      0.0133   1404.0180    703.0000     48.9504
            8           4      0.2333      0.0200   1404.6954    703.0000     48.9879
            8           5      0.2333      0.0267   1405.3761    703.0000     49.0256
            8           6      0.2333      0.0333   1406.0602    703.0000     49.0637
            8           7      0.2333      0.0400   1406.7478    703.0000     49.1019
            8           8      0.2333      0.0467   1407.4393    703.0000     49.1405
            8           9      0.2333      0.0533   1408.1347    703.0000     49.1793
            8          10      0.2333      0.0600   1408.8342    703.0000     49.2184
            8          11      0.2333      0.0667   1409.5380    703.0000     49.2578
            8          12      0.2333      0.0733   1410.2461    703.0000     49.2976
            8          13      0.2333      0.0800   1410.9586    703.0000     49.3376
            8          14      0.2333      0.0867   1411.6758    703.0000     49.3779
            8          15      0.2333      0.0933   1412.3975    703.0000     49.4186
            8          16      0.2333      0.1000   1413.1240    703.0000     49.4596
            8          17      0.2333      0.1067   1413.8552    703.0000     49.5010
            8          18      0.2333      0.1133   1414.5912    703.0000     49.5427
            8          19      0.2333      0.1200   1415.3320    703.0000     49.5847
            8          20      0.2333      0.1267   1416.0775    703.0000     49.6270
            8          21      0.2333      0.1333   1416.8278    703.0000     49.6697
            8          22      0.2333      0.1400   1417.5827    703.0000     49.7128
            8          23      0.2333      0.1467   1418.3422    703.0000     49.7561
            8          24      0.2333      0.1533   1419.1061    703.0000     49.7998
            8          25      0.2333      0.1600   1419.8744    703.0000     49.8438
            8          26      0.2333      0.1667   1420.6467    703.0000     49.8882
            8          27      0.2333      0.1733   1421.4231    703.0000     49.9328
            8          28      0.2333      0.1800   1422.2032    703.0000     49.9777
            8          29      0.2333      0.1867   1422.9867    703.0000     50.0229
            8          30      0.2333      0.1933   1423.7735    703.0000     50.0683
            8          31      0.2333      0.2000   1424.5633    703.0000     50.1140
            9           1      0.2667      0.0000   1402.9346    703.0000     48.8905
            9           2      0.2667      0.0067   1403.6242    703.0000     48.9286
            9           3      0.2667      0.0133   1404.3157    703.0000     48.9668
            9           4      0.2667      0.0200   1405.0092    703.0000     49.0053
            9           5      0.2667      0.0267   1405.7050    703.0000     49.0439
            9           6      0.2667      0.0333   1406.4032    703.0000     49.0827
            9           7      0.2667      0.0400   1407.1038    703.0000     49.1218
            9           8      0.2667      0.0467   1407.8070    703.0000     49.1610
            9           9      0.2667      0.0533   1408.5129    703.0000     49.2004
            9          10      0.2667      0.0600   1409.2216    703.0000     49.2401
            9          11      0.2667      0.0667   1409.9332    703.0000     49.2800
            9          12      0.2667      0.0733   1410.6478    703.0000     49.3201
            9          13      0.2667      0.0800   1411.3654    703.0000     49.3605
            9          14      0.2667      0.0867   1412.0862    703.0000     49.4011
            9          15      0.2667      0.0933   1412.8101    703.0000     49.4419
            9          16      0.2667      0.1000   1413.5371    703.0000     49.4830
            9          17      0.2667      0.1067   1414.2674    703.0000     49.5243
            9          18      0.2667      0.1133   1415.0009    703.0000     49.5659
            9          19      0.2667      0.1200   1415.7375    703.0000     49.6077
            9          20      0.2667      0.1267   1416.4773    703.0000     49.6498
            9          21      0.2667      0.1333   1417.2203    703.0000     49.6921
            9          22      0.2667      0.1400   1417.9663    703.0000     49.7347
            9          23      0.2667      0.1467   1418.7153    703.0000     49.7775
            9          24      0.2667      0.1533   1419.4672    703.0000     49.8205
            9          25      0.2667      0.1600   1420.2219    703.0000     49.8638
            9          26      0.2667      0.1667   1420.9792    703.0000     49.9073
            9          27      0.2667      0.1733   1421.7391    703.0000     49.9510
            9          28      0.2667      0.1800   1422.5014    703.0000     49.9949
            9          29      0.2667      0.1867   1423.2659    703.0000     50.0390
            9          30      0.2667      0.1933   1424.0324    703.0000     50.0833
            9          31      0.2667      0.2000   1424.8007    703.0000     50.1278
           10           1      0.3000      0.0000   1403.1295    703.0000     48.9012
           10           2      0.3000      0.0067   1403.8325    703.0000     48.9401
           10           3      0.3000      0.0133   1404.5367    703.0000     48.9791
           10           4      0.3000      0.0200   1405.2421    703.0000     49.0182
           10           5      0.3000      0.0267   1405.9490    703.0000     49.0575
           10           6      0.3000      0.0333   1406.6574    703.0000     49.0969
           10           7      0.3000      0.0400   1407.3674    703.0000     49.1365
           10           8      0.3000      0.0467   1408.0791    703.0000     49.1762
           10           9      0.3000      0.0533   1408.7925    703.0000     49.2161
           10          10      0.3000      0.0600   1409.5077    703.0000     49.2561
           10          11      0.3000      0.0667   1410.2248    703.0000     49.2964
           10          12      0.3000      0.0733   1410.9439    703.0000     49.3368
           10          13      0.3000      0.0800   1411.6649    703.0000     49.3773
           10          14      0.3000      0.0867   1412.3879    703.0000     49.4181
           10          15      0.3000      0.0933   1413.1129    703.0000     49.4590
           10          16      0.3000      0.1000   1413.8401    703.0000     49.5001
           10          17      0.3000      0.1067   1414.5692    703.0000     49.5414
           10          18      0.3000      0.1133   1415.3004    703.0000     49.5829
           10          19      0.3000      0.1200   1416.0337    703.0000     49.6246
           10          20      0.3000      0.1267   1416.7690    703.0000     49.6664
           10          21      0.3000      0.1333   1417.5063    703.0000     49.7084
           10          22      0.3000      0.1400   1418.2454    703.0000     49.7506
           10          23      0.3000      0.1467   1418.9865    703.0000     49.7930
           10          24      0.3000      0.1533   1419.7294    703.0000     49.8355
           10          25      0.3000      0.1600   1420.4740    703.0000     49.8782
           10          26      0.3000      0.1667   1421.2203    703.0000     49.9211
           10          27      0.3000      0.1733   1421.9681    703.0000     49.9641
           10          28      0.3000      0.1800   1422.7173    703.0000     50.0073
           10          29      0.3000      0.1867   1423.4679    703.0000     50.0506
           10          30      0.3000      0.1933   1424.2197    703.0000     50.0941
           10          31      0.3000      0.2000   1424.9725    703.0000     50.1377
           11           1      0.3333      0.0000   1403.2727    703.0000     48.9091
           11           2      0.3333      0.0067   1403.9855    703.0000     48.9486
           11           3      0.3333      0.0133   1404.6989    703.0000     48.9881
           11           4      0.3333      0.0200   1405.4131    703.0000     49.0277
           11           5      0.3333      0.0267   1406.1280    703.0000     49.0674
           11           6      0.3333      0.0333   1406.8439    703.0000     49.1073
           11           7      0.3333      0.0400   1407.5606    703.0000     49.1473
           11           8      0.3333      0.0467   1408.2784    703.0000     49.1873
           11           9      0.3333      0.0533   1408.9971    703.0000     49.2275
           11          10      0.3333      0.0600   1409.7170    703.0000     49.2679
           11          11      0.3333      0.0667   1410.4380    703.0000     49.3083
           11          12      0.3333      0.0733   1411.1601    703.0000     49.3489
           11          13      0.3333      0.0800   1411.8834    703.0000     49.3896
           11          14      0.3333      0.0867   1412.6079    703.0000     49.4305
           11          15      0.3333      0.0933   1413.3336    703.0000     49.4715
           11          16      0.3333      0.1000   1414.0606    703.0000     49.5126
           11          17      0.3333      0.1067   1414.7888    703.0000     49.5539
           11          18      0.3333      0.1133   1415.5182    703.0000     49.5953
           11          19      0.3333      0.1200   1416.2488    703.0000     49.6368
           11          20      0.3333      0.1267   1416.9806    703.0000     49.6784
           11          21      0.3333      0.1333   1417.7136    703.0000     49.7202
           11          22      0.3333      0.1400   1418.4477    703.0000     49.7622
           11          23      0.3333      0.1467   1419.1828    703.0000     49.8042
           11          24      0.3333      0.1533   1419.9191    703.0000     49.8464
           11          25      0.3333      0.1600   1420.6563    703.0000     49.8887
           11          26      0.3333      0.1667   1421.3944    703.0000     49.9311
           11          27      0.3333      0.1733   1422.1334    703.0000     49.9737
           11          28      0.3333      0.1800   1422.8732    703.0000     50.0163
           11          29      0.3333      0.1867   1423.6137    703.0000     50.0591
           11          30      0.3333      0.1933   1424.3548    703.0000     50.1019
           11          31      0.3333      0.2000   1425.0964    703.0000     50.1449
           12           1      0.3667      0.0000   1403.3761    703.0000     48.9148
           12           2      0.3667      0.0067   1404.0959    703.0000     48.9547
           12           3      0.3667      0.0133   1404.8160    703.0000     48.9946
           12           4      0.3667      0.0200   1405.5364    703.0000     49.0346
           12           5      0.3667      0.0267   1406.2572    703.0000     49.0746
           12           6      0.3667      0.0333   1406.9783    703.0000     49.1148
           12           7      0.3667      0.0400   1407.6999    703.0000     49.1550
           12           8      0.3667      0.0467   1408.4220    703.0000     49.1954
           12           9      0.3667      0.0533   1409.1446    703.0000     49.2358
           12          10      0.3667      0.0600   1409.8677    703.0000     49.2763
           12          11      0.3667      0.0667   1410.5914    703.0000     49.3170
           12          12      0.3667      0.0733   1411.3156    703.0000     49.3577
           12          13      0.3667      0.0800   1412.0405    703.0000     49.3985
           12          14      0.3667      0.0867   1412.7660    703.0000     49.4394
           12          15      0.3667      0.0933   1413.4921    703.0000     49.4804
           12          16      0.3667      0.1000   1414.2189    703.0000     49.5216
           12          17      0.3667      0.1067   1414.9462    703.0000     49.5628
           12          18      0.3667      0.1133   1415.6742    703.0000     49.6041
           12          19      0.3667      0.1200   1416.4029    703.0000     49.6456
           12          20      0.3667      0.1267   1417.1321    703.0000     49.6871
           12          21      0.3667      0.1333   1417.8619    703.0000     49.7287
           12          22      0.3667      0.1400   1418.5923    703.0000     49.7704
           12          23      0.3667      0.1467   1419.3232    703.0000     49.8123
           12          24      0.3667      0.1533   1420.0546    703.0000     49.8542
           12          25      0.3667      0.1600   1420.7865    703.0000     49.8962
           12          26      0.3667      0.1667   1421.5188    703.0000     49.9383
           12          27      0.3667      0.1733   1422.2514    703.0000     49.9805
           12          28      0.3667      0.1800   1422.9844    703.0000     50.0227
           12          29      0.3667      0.1867   1423.7177    703.0000     50.0651
           12          30      0.3667      0.1933   1424.4512    703.0000     50.1075
           12          31      0.3667      0.2000   1425.1848    703.0000     50.1500
           13           1      0.4000      0.0000   1403.4484    703.0000     48.9188
           13           2      0.4000      0.0067   1404.1732    703.0000     48.9589
           13           3      0.4000      0.0133   1404.8980    703.0000     48.9991
           13           4      0.4000      0.0200   1405.6228    703.0000     49.0393
           13           5      0.4000      0.0267   1406.3476    703.0000     49.0797
           13           6      0.4000      0.0333   1407.0724    703.0000     49.1200
           13           7      0.4000      0.0400   1407.7974    703.0000     49.1605
           13           8      0.4000      0.0467   1408.5224    703.0000     49.2010
           13           9      0.4000      0.0533   1409.2476    703.0000     49.2416
           13          10      0.4000      0.0600   1409.9730    703.0000     49.2822
           13          11      0.4000      0.0667   1410.6985    703.0000     49.3230
           13          12      0.4000      0.0733   1411.4243    703.0000     49.3638
           13          13      0.4000      0.0800   1412.1502    703.0000     49.4047
           13          14      0.4000      0.0867   1412.8763    703.0000     49.4456
           13          15      0.4000      0.0933   1413.6026    703.0000     49.4867
           13          16      0.4000      0.1000   1414.3292    703.0000     49.5278
           13          17      0.4000      0.1067   1415.0560    703.0000     49.5690
           13          18      0.4000      0.1133   1415.7830    703.0000     49.6103
           13          19      0.4000      0.1200   1416.5102    703.0000     49.6517
           13          20      0.4000      0.1267   1417.2376    703.0000     49.6931
           13          21      0.4000      0.1333   1417.9651    703.0000     49.7346
           13          22      0.4000      0.1400   1418.6929    703.0000     49.7762
           13          23      0.4000      0.1467   1419.4208    703.0000     49.8178
           13          24      0.4000      0.1533   1420.1488    703.0000     49.8596
           13          25      0.4000      0.1600   1420.8770    703.0000     49.9014
           13          26      0.4000      0.1667   1421.6052    703.0000     49.9432
           13          27      0.4000      0.1733   1422.3334    703.0000     49.9852
           13          28      0.4000      0.1800   1423.0617    703.0000     50.0272
           13          29      0.4000      0.1867   1423.7899    703.0000     50.0693
           13          30      0.4000      0.1933   1424.5181    703.0000     50.1114
           13          31      0.4000      0.2000   1425.2462    703.0000     50.1536
           14           1      0.4333      0.0000   1403.4960    703.0000     48.9215
           14           2      0.4333      0.0067   1404.2241    703.0000     48.9618
           14           3      0.4333      0.0133   1404.9519    703.0000     49.0021
           14           4      0.4333      0.0200   1405.6795    703.0000     49.0425
           14           5      0.4333      0.0267   1406.4070    703.0000     49.0830
           14           6      0.4333      0.0333   1407.1343    703.0000     49.1235
           14           7      0.4333      0.0400   1407.8614    703.0000     49.1640
           14           8      0.4333      0.0467   1408.5885    703.0000     49.2047
           14           9      0.4333      0.0533   1409.3154    703.0000     49.2454
           14          10      0.4333      0.0600   1410.0422    703.0000     49.2861
           14          11      0.4333      0.0667   1410.7689    703.0000     49.3269
           14          12      0.4333      0.0733   1411.4956    703.0000     49.3678
           14          13      0.4333      0.0800   1412.2222    703.0000     49.4087
           14          14      0.4333      0.0867   1412.9487    703.0000     49.4497
           14          15      0.4333      0.0933   1413.6752    703.0000     49.4908
           14          16      0.4333      0.1000   1414.4016    703.0000     49.5319
           14          17      0.4333      0.1067   1415.1280    703.0000     49.5731
           14          18      0.4333      0.1133   1415.8543    703.0000     49.6144
           14          19      0.4333      0.1200   1416.5805    703.0000     49.6557
           14          20      0.4333      0.1267   1417.3067    703.0000     49.6970
           14          21      0.4333      0.1333   1418.0328    703.0000     49.7385
           14          22      0.4333      0.1400   1418.7588    703.0000     49.7800
           14          23      0.4333      0.1467   1419.4847    703.0000     49.8215
           14          24      0.4333      0.1533   1420.2105    703.0000     49.8631
           14          25      0.4333      0.1600   1420.9362    703.0000     49.9048
           14          26      0.4333      0.1667   1421.6617    703.0000     49.9465
           14          27      0.4333      0.1733   1422.3871    703.0000     49.9883
           14          28      0.4333      0.1800   1423.1122    703.0000     50.0301
           14          29      0.4333      0.1867   1423.8372    703.0000     50.0720
           14          30      0.4333      0.1933   1424.5619    703.0000     50.1139
           14          31      0.4333      0.2000   1425.2863    703.0000     50.1559
           15           1      0.4667      0.0000   1403.5230    703.0000     48.9230
           15           2      0.4667      0.0067   1404.2529    703.0000     48.9634
           15           3      0.4667      0.0133   1404.9825    703.0000     49.0038
           15           4      0.4667      0.0200   1405.7117    703.0000     49.0443
           15           5      0.4667      0.0267   1406.4407    703.0000     49.0848
           15           6      0.4667      0.0333   1407.1694    703.0000     49.1254
           15           7      0.4667      0.0400   1407.8977    703.0000     49.1661
           15           8      0.4667      0.0467   1408.6259    703.0000     49.2068
           15           9      0.4667      0.0533   1409.3538    703.0000     49.2475
           15          10      0.4667      0.0600   1410.0814    703.0000     49.2883
           15          11      0.4667      0.0667   1410.8088    703.0000     49.3292
           15          12      0.4667      0.0733   1411.5360    703.0000     49.3701
           15          13      0.4667      0.0800   1412.2630    703.0000     49.4110
           15          14      0.4667      0.0867   1412.9897    703.0000     49.4521
           15          15      0.4667      0.0933   1413.7163    703.0000     49.4931
           15          16      0.4667      0.1000   1414.4426    703.0000     49.5342
           15          17      0.4667      0.1067   1415.1687    703.0000     49.5754
           15          18      0.4667      0.1133   1415.8947    703.0000     49.6166
           15          19      0.4667      0.1200   1416.6204    703.0000     49.6579
           15          20      0.4667      0.1267   1417.3458    703.0000     49.6993
           15          21      0.4667      0.1333   1418.0711    703.0000     49.7406
           15          22      0.4667      0.1400   1418.7961    703.0000     49.7821
           15          23      0.4667      0.1467   1419.5209    703.0000     49.8236
           15          24      0.4667      0.1533   1420.2454    703.0000     49.8651
           15          25      0.4667      0.1600   1420.9697    703.0000     49.9067
           15          26      0.4667      0.1667   1421.6937    703.0000     49.9483
           15          27      0.4667      0.1733   1422.4174    703.0000     49.9900
           15          28      0.4667      0.1800   1423.1408    703.0000     50.0318
           15          29      0.4667      0.1867   1423.8639    703.0000     50.0735
           15          30      0.4667      0.1933   1424.5867    703.0000     50.1154
           15          31      0.4667      0.2000   1425.3090    703.0000     50.1572
           16           1      0.5000      0.0000   1403.5317    703.0000     48.9234
           16           2      0.5000      0.0067   1404.2622    703.0000     48.9639
           16           3      0.5000      0.0133   1404.9923    703.0000     49.0043
           16           4      0.5000      0.0200   1405.7221    703.0000     49.0449
           16           5      0.5000      0.0267   1406.4516    703.0000     49.0854
           16           6      0.5000      0.0333   1407.1807    703.0000     49.1261
           16           7      0.5000      0.0400   1407.9095    703.0000     49.1667
           16           8      0.5000      0.0467   1408.6380    703.0000     49.2074
           16           9      0.5000      0.0533   1409.3662    703.0000     49.2482
           16          10      0.5000      0.0600   1410.0941    703.0000     49.2890
           16          11      0.5000      0.0667   1410.8217    703.0000     49.3299
           16          12      0.5000      0.0733   1411.5491    703.0000     49.3708
           16          13      0.5000      0.0800   1412.2762    703.0000     49.4118
           16          14      0.5000      0.0867   1413.0030    703.0000     49.4528
           16          15      0.5000      0.0933   1413.7296    703.0000     49.4939
           16          16      0.5000      0.1000   1414.4559    703.0000     49.5350
           16          17      0.5000      0.1067   1415.1819    703.0000     49.5762
           16          18      0.5000      0.1133   1415.9077    703.0000     49.6174
           16          19      0.5000      0.1200   1416.6332    703.0000     49.6587
           16          20      0.5000      0.1267   1417.3585    703.0000     49.7000
           16          21      0.5000      0.1333   1418.0835    703.0000     49.7414
           16          22      0.5000      0.1400   1418.8082    703.0000     49.7828
           16          23      0.5000      0.1467   1419.5326    703.0000     49.8242
           16          24      0.5000      0.1533   1420.2567    703.0000     49.8658
           16          25      0.5000      0.1600   1420.9805    703.0000     49.9073
           16          26      0.5000      0.1667   1421.7040    703.0000     49.9489
           16          27      0.5000      0.1733   1422.4272    703.0000     49.9906
           16          28      0.5000      0.1800   1423.1501    703.0000     50.0323
           16          29      0.5000      0.1867   1423.8725    703.0000     50.0740
           16          30      0.5000      0.1933   1424.5947    703.0000     50.1158
           16          31      0.5000      0.2000   1425.3164    703.0000     50.1576
           17           1      0.5333      0.0000   1403.5229    703.0000     48.9230
           17           2      0.5333      0.0067   1404.2528    703.0000     48.9634
           17           3      0.5333      0.0133   1404.9824    703.0000     49.0038
           17           4      0.5333      0.0200   1405.7117    703.0000     49.0443
           17           5      0.5333      0.0267   1406.4406    703.0000     49.0848
           17           6      0.5333      0.0333   1407.1693    703.0000     49.1254
           17           7      0.5333      0.0400   1407.8977    703.0000     49.1661
           17           8      0.5333      0.0467   1408.6258    703.0000     49.2068
           17           9      0.5333      0.0533   1409.3537    703.0000     49.2475
           17          10      0.5333      0.0600   1410.0813    703.0000     49.2883
           17          11      0.5333      0.0667   1410.8088    703.0000     49.3292
           17          12      0.5333      0.0733   1411.5359    703.0000     49.3701
           17          13      0.5333      0.0800   1412.2629    703.0000     49.4110
           17          14      0.5333      0.0867   1412.9897    703.0000     49.4520
           17          15      0.5333      0.0933   1413.7162    703.0000     49.4931
           17          16      0.5333      0.1000   1414.4425    703.0000     49.5342
           17          17      0.5333      0.1067   1415.1687    703.0000     49.5754
           17          18      0.5333      0.1133   1415.8946    703.0000     49.6166
           17          19      0.5333      0.1200   1416.6203    703.0000     49.6579
           17          20      0.5333      0.1267   1417.3458    703.0000     49.6993
           17          21      0.5333      0.1333   1418.0710    703.0000     49.7406
           17          22      0.5333      0.1400   1418.7961    703.0000     49.7821
           17          23      0.5333      0.1467   1419.5208    703.0000     49.8236
           17          24      0.5333      0.1533   1420.2454    703.0000     49.8651
           17          25      0.5333      0.1600   1420.9697    703.0000     49.9067
           17          26      0.5333      0.1667   1421.6937    703.0000     49.9483
           17          27      0.5333      0.1733   1422.4174    703.0000     49.9900
           17          28      0.5333      0.1800   1423.1408    703.0000     50.0318
           17          29      0.5333      0.1867   1423.8639    703.0000     50.0735
           17          30      0.5333      0.1933   1424.5866    703.0000     50.1154
           17          31      0.5333      0.2000   1425.3090    703.0000     50.1572
           18           1      0.5667      0.0000   1403.4959    703.0000     48.9215
           18           2      0.5667      0.0067   1404.2240    703.0000     48.9618
           18           3      0.5667      0.0133   1404.9518    703.0000     49.0021
           18           4      0.5667      0.0200   1405.6794    703.0000     49.0425
           18           5      0.5667      0.0267   1406.4069    703.0000     49.0830
           18           6      0.5667      0.0333   1407.1342    703.0000     49.1235
           18           7      0.5667      0.0400   1407.8613    703.0000     49.1640
           18           8      0.5667      0.0467   1408.5883    703.0000     49.2047
           18           9      0.5667      0.0533   1409.3153    703.0000     49.2454
           18          10      0.5667      0.0600   1410.0421    703.0000     49.2861
           18          11      0.5667      0.0667   1410.7688    703.0000     49.3269
           18          12      0.5667      0.0733   1411.4955    703.0000     49.3678
           18          13      0.5667      0.0800   1412.2221    703.0000     49.4087
           18          14      0.5667      0.0867   1412.9486    703.0000     49.4497
           18          15      0.5667      0.0933   1413.6751    703.0000     49.4908
           18          16      0.5667      0.1000   1414.4015    703.0000     49.5319
           18          17      0.5667      0.1067   1415.1279    703.0000     49.5731
           18          18      0.5667      0.1133   1415.8542    703.0000     49.6143
           18          19      0.5667      0.1200   1416.5804    703.0000     49.6557
           18          20      0.5667      0.1267   1417.3066    703.0000     49.6970
           18          21      0.5667      0.1333   1418.0327    703.0000     49.7385
           18          22      0.5667      0.1400   1418.7587    703.0000     49.7799
           18          23      0.5667      0.1467   1419.4846    703.0000     49.8215
           18          24      0.5667      0.1533   1420.2104    703.0000     49.8631
           18          25      0.5667      0.1600   1420.9361    703.0000     49.9048
           18          26      0.5667      0.1667   1421.6616    703.0000     49.9465
           18          27      0.5667      0.1733   1422.3870    703.0000     49.9883
           18          28      0.5667      0.1800   1423.1122    703.0000     50.0301
           18          29      0.5667      0.1867   1423.8371    703.0000     50.0720
           18          30      0.5667      0.1933   1424.5618    703.0000     50.1139
           18          31      0.5667      0.2000   1425.2863    703.0000     50.1559
           19           1      0.6000      0.0000   1403.4483    703.0000     48.9188
           19           2      0.6000      0.0067   1404.1731    703.0000     48.9589
           19           3      0.6000      0.0133   1404.8978    703.0000     48.9991
           19           4      0.6000      0.0200   1405.6226    703.0000     49.0393
           19           5      0.6000      0.0267   1406.3474    703.0000     49.0796
           19           6      0.6000      0.0333   1407.0723    703.0000     49.1200
           19           7      0.6000      0.0400   1407.7972    703.0000     49.1605
           19           8      0.6000      0.0467   1408.5223    703.0000     49.2010
           19           9      0.6000      0.0533   1409.2475    703.0000     49.2416
           19          10      0.6000      0.0600   1409.9728    703.0000     49.2822
           19          11      0.6000      0.0667   1410.6983    703.0000     49.3230
           19          12      0.6000      0.0733   1411.4241    703.0000     49.3638
           19          13      0.6000      0.0800   1412.1500    703.0000     49.4047
           19          14      0.6000      0.0867   1412.8761    703.0000     49.4456
           19          15      0.6000      0.0933   1413.6025    703.0000     49.4867
           19          16      0.6000      0.1000   1414.3290    703.0000     49.5278
           19          17      0.6000      0.1067   1415.0558    703.0000     49.5690
           19          18      0.6000      0.1133   1415.7828    703.0000     49.6103
           19          19      0.6000      0.1200   1416.5100    703.0000     49.6516
           19          20      0.6000      0.1267   1417.2374    703.0000     49.6931
           19          21      0.6000      0.1333   1417.9650    703.0000     49.7346
           19          22      0.6000      0.1400   1418.6927    703.0000     49.7762
           19          23      0.6000      0.1467   1419.4206    703.0000     49.8178
           19          24      0.6000      0.1533   1420.1487    703.0000     49.8596
           19          25      0.6000      0.1600   1420.8768    703.0000     49.9014
           19          26      0.6000      0.1667   1421.6050    703.0000     49.9432
           19          27      0.6000      0.1733   1422.3333    703.0000     49.9852
           19          28      0.6000      0.1800   1423.0615    703.0000     50.0272
           19          29      0.6000      0.1867   1423.7898    703.0000     50.0692
           19          30      0.6000      0.1933   1424.5180    703.0000     50.1114
           19          31      0.6000      0.2000   1425.2460    703.0000     50.1536
           20           1      0.6333      0.0000   1403.3759    703.0000     48.9148
           20           2      0.6333      0.0067   1404.0957    703.0000     48.9547
           20           3      0.6333      0.0133   1404.8158    703.0000     48.9946
           20           4      0.6333      0.0200   1405.5362    703.0000     49.0345
           20           5      0.6333      0.0267   1406.2570    703.0000     49.0746
           20           6      0.6333      0.0333   1406.9781    703.0000     49.1148
           20           7      0.6333      0.0400   1407.6997    703.0000     49.1550
           20           8      0.6333      0.0467   1408.4218    703.0000     49.1954
           20           9      0.6333      0.0533   1409.1444    703.0000     49.2358
           20          10      0.6333      0.0600   1409.8675    703.0000     49.2763
           20          11      0.6333      0.0667   1410.5911    703.0000     49.3169
           20          12      0.6333      0.0733   1411.3154    703.0000     49.3577
           20          13      0.6333      0.0800   1412.0403    703.0000     49.3985
           20          14      0.6333      0.0867   1412.7658    703.0000     49.4394
           20          15      0.6333      0.0933   1413.4919    703.0000     49.4804
           20          16      0.6333      0.1000   1414.2186    703.0000     49.5216
           20          17      0.6333      0.1067   1414.9460    703.0000     49.5628
           20          18      0.6333      0.1133   1415.6740    703.0000     49.6041
           20          19      0.6333      0.1200   1416.4026    703.0000     49.6455
           20          20      0.6333      0.1267   1417.1319    703.0000     49.6871
           20          21      0.6333      0.1333   1417.8617    703.0000     49.7287
           20          22      0.6333      0.1400   1418.5921    703.0000     49.7704
           20          23      0.6333      0.1467   1419.3230    703.0000     49.8122
           20          24      0.6333      0.1533   1420.0544    703.0000     49.8542
           20          25      0.6333      0.1600   1420.7863    703.0000     49.8962
           20          26      0.6333      0.1667   1421.5186    703.0000     49.9383
           20          27      0.6333      0.1733   1422.2512    703.0000     49.9804
           20          28      0.6333      0.1800   1422.9842    703.0000     50.0227
           20          29      0.6333      0.1867   1423.7175    703.0000     50.0651
           20          30      0.6333      0.1933   1424.4510    703.0000     50.1075
           20          31      0.6333      0.2000   1425.1846    703.0000     50.1500
           21           1      0.6667      0.0000   1403.2725    703.0000     48.9091
           21           2      0.6667      0.0067   1403.9853    703.0000     48.9485
           21           3      0.6667      0.0133   1404.6987    703.0000     48.9881
           21           4      0.6667      0.0200   1405.4129    703.0000     49.0277
           21           5      0.6667      0.0267   1406.1278    703.0000     49.0674
           21           6      0.6667      0.0333   1406.8436    703.0000     49.1073
           21           7      0.6667      0.0400   1407.5604    703.0000     49.1472
           21           8      0.6667      0.0467   1408.2781    703.0000     49.1873
           21           9      0.6667      0.0533   1408.9969    703.0000     49.2275
           21          10      0.6667      0.0600   1409.7167    703.0000     49.2679
           21          11      0.6667      0.0667   1410.4377    703.0000     49.3083
           21          12      0.6667      0.0733   1411.1598    703.0000     49.3489
           21          13      0.6667      0.0800   1411.8831    703.0000     49.3896
           21          14      0.6667      0.0867   1412.6076    703.0000     49.4305
           21          15      0.6667      0.0933   1413.3334    703.0000     49.4715
           21          16      0.6667      0.1000   1414.0603    703.0000     49.5126
           21          17      0.6667      0.1067   1414.7885    703.0000     49.5538
           21          18      0.6667      0.1133   1415.5179    703.0000     49.5952
           21          19      0.6667      0.1200   1416.2485    703.0000     49.6368
           21          20      0.6667      0.1267   1416.9803    703.0000     49.6784
           21          21      0.6667      0.1333   1417.7133    703.0000     49.7202
           21          22      0.6667      0.1400   1418.4474    703.0000     49.7621
           21          23      0.6667      0.1467   1419.1826    703.0000     49.8042
           21          24      0.6667      0.1533   1419.9188    703.0000     49.8464
           21          25      0.6667      0.1600   1420.6561    703.0000     49.8887
           21          26      0.6667      0.1667   1421.3942    703.0000     49.9311
           21          27      0.6667      0.1733   1422.1332    703.0000     49.9736
           21          28      0.6667      0.1800   1422.8730    703.0000     50.0163
           21          29      0.6667      0.1867   1423.6135    703.0000     50.0591
           21          30      0.6667      0.1933   1424.3546    703.0000     50.1019
           21          31      0.6667      0.2000   1425.0962    703.0000     50.1449
           22           1      0.7000      0.0000   1403.1294    703.0000     48.9012
           22           2      0.7000      0.0067   1403.8323    703.0000     48.9401
           22           3      0.7000      0.0133   1404.5365    703.0000     48.9791
           22           4      0.7000      0.0200   1405.2419    703.0000     49.0182
           22           5      0.7000      0.0267   1405.9488    703.0000     49.0575
           22           6      0.7000      0.0333   1406.6572    703.0000     49.0969
           22           7      0.7000      0.0400   1407.3672    703.0000     49.1365
           22           8      0.7000      0.0467   1408.0788    703.0000     49.1762
           22           9      0.7000      0.0533   1408.7922    703.0000     49.2161
           22          10      0.7000      0.0600   1409.5074    703.0000     49.2561
           22          11      0.7000      0.0667   1410.2245    703.0000     49.2964
           22          12      0.7000      0.0733   1410.9436    703.0000     49.3367
           22          13      0.7000      0.0800   1411.6646    703.0000     49.3773
           22          14      0.7000      0.0867   1412.3876    703.0000     49.4181
           22          15      0.7000      0.0933   1413.1127    703.0000     49.4590
           22          16      0.7000      0.1000   1413.8398    703.0000     49.5001
           22          17      0.7000      0.1067   1414.5690    703.0000     49.5414
           22          18      0.7000      0.1133   1415.3002    703.0000     49.5829
           22          19      0.7000      0.1200   1416.0334    703.0000     49.6245
           22          20      0.7000      0.1267   1416.7687    703.0000     49.6664
           22          21      0.7000      0.1333   1417.5060    703.0000     49.7084
           22          22      0.7000      0.1400   1418.2452    703.0000     49.7506
           22          23      0.7000      0.1467   1418.9863    703.0000     49.7930
           22          24      0.7000      0.1533   1419.7292    703.0000     49.8355
           22          25      0.7000      0.1600   1420.4738    703.0000     49.8782
           22          26      0.7000      0.1667   1421.2201    703.0000     49.9211
           22          27      0.7000      0.1733   1421.9679    703.0000     49.9641
           22          28      0.7000      0.1800   1422.7172    703.0000     50.0073
           22          29      0.7000      0.1867   1423.4677    703.0000     50.0506
           22          30      0.7000      0.1933   1424.2195    703.0000     50.0941
           22          31      0.7000      0.2000   1424.9723    703.0000     50.1377
           23           1      0.7333      0.0000   1402.9344    703.0000     48.8904
           23           2      0.7333      0.0067   1403.6240    703.0000     48.9286
           23           3      0.7333      0.0133   1404.3155    703.0000     48.9668
           23           4      0.7333      0.0200   1405.0091    703.0000     49.0053
           23           5      0.7333      0.0267   1405.7048    703.0000     49.0439
           23           6      0.7333      0.0333   1406.4030    703.0000     49.0827
           23           7      0.7333      0.0400   1407.1036    703.0000     49.1218
           23           8      0.7333      0.0467   1407.8068    703.0000     49.1610
           23           9      0.7333      0.0533   1408.5127    703.0000     49.2004
           23          10      0.7333      0.0600   1409.2214    703.0000     49.2401
           23          11      0.7333      0.0667   1409.9330    703.0000     49.2800
           23          12      0.7333      0.0733   1410.6476    703.0000     49.3201
           23          13      0.7333      0.0800   1411.3652    703.0000     49.3605
           23          14      0.7333      0.0867   1412.0859    703.0000     49.4011
           23          15      0.7333      0.0933   1412.8098    703.0000     49.4419
           23          16      0.7333      0.1000   1413.5369    703.0000     49.4830
           23          17      0.7333      0.1067   1414.2672    703.0000     49.5243
           23          18      0.7333      0.1133   1415.0006    703.0000     49.5659
           23          19      0.7333      0.1200   1415.7373    703.0000     49.6077
           23          20      0.7333      0.1267   1416.4771    703.0000     49.6498
           23          21      0.7333      0.1333   1417.2201    703.0000     49.6921
           23          22      0.7333      0.1400   1417.9661    703.0000     49.7347
           23          23      0.7333      0.1467   1418.7151    703.0000     49.7775
           23          24      0.7333      0.1533   1419.4670    703.0000     49.8205
           23          25      0.7333      0.1600   1420.2217    703.0000     49.8638
           23          26      0.7333      0.1667   1420.9791    703.0000     49.9072
           23          27      0.7333      0.1733   1421.7390    703.0000     49.9509
           23          28      0.7333      0.1800   1422.5013    703.0000     49.9949
           23          29      0.7333      0.1867   1423.2657    703.0000     50.0390
           23          30      0.7333      0.1933   1424.0323    703.0000     50.0833
           23          31      0.7333      0.2000   1424.8006    703.0000     50.1277
           24           1      0.7667      0.0000   1402.6720    703.0000     48.8760
           24           2      0.7667      0.0067   1403.3435    703.0000     48.9130
           24           3      0.7667      0.0133   1404.0179    703.0000     48.9503
           24           4      0.7667      0.0200   1404.6953    703.0000     48.9879
           24           5      0.7667      0.0267   1405.3759    703.0000     49.0256
           24           6      0.7667      0.0333   1406.0600    703.0000     49.0637
           24           7      0.7667      0.0400   1406.7477    703.0000     49.1019
           24           8      0.7667      0.0467   1407.4392    703.0000     49.1405
           24           9      0.7667      0.0533   1408.1346    703.0000     49.1793
           24          10      0.7667      0.0600   1408.8341    703.0000     49.2184
           24          11      0.7667      0.0667   1409.5378    703.0000     49.2578
           24          12      0.7667      0.0733   1410.2459    703.0000     49.2976
           24          13      0.7667      0.0800   1410.9585    703.0000     49.3376
           24          14      0.7667      0.0867   1411.6756    703.0000     49.3779
           24          15      0.7667      0.0933   1412.3974    703.0000     49.4186
           24          16      0.7667      0.1000   1413.1238    703.0000     49.4596
           24          17      0.7667      0.1067   1413.8551    703.0000     49.5010
           24          18      0.7667      0.1133   1414.5911    703.0000     49.5427
           24          19      0.7667      0.1200   1415.3319    703.0000     49.5847
           24          20      0.7667      0.1267   1416.0774    703.0000     49.6270
           24          21      0.7667      0.1333   1416.8277    703.0000     49.6697
           24          22      0.7667      0.1400   1417.5826    703.0000     49.7128
           24          23      0.7667      0.1467   1418.3421    703.0000     49.7561
           24          24      0.7667      0.1533   1419.1060    703.0000     49.7998
           24          25      0.7667      0.1600   1419.8742    703.0000     49.8438
           24          26      0.7667      0.1667   1420.6466    703.0000     49.8881
           24          27      0.7667      0.1733   1421.4230    703.0000     49.9328
           24          28      0.7667      0.1800   1422.2031    703.0000     49.9777
           24          29      0.7667      0.1867   1422.9866    703.0000     50.0229
           24          30      0.7667      0.1933   1423.7734    703.0000     50.0683
           24          31      0.7667      0.2000   1424.5632    703.0000     50.1140
           25           1      0.8000      0.0000   1402.3218    703.0000     48.8566
           25           2      0.8000      0.0067   1402.9693    703.0000     48.8924
           25           3      0.8000      0.0133   1403.6207    703.0000     48.9284
           25           4      0.8000      0.0200   1404.2763    703.0000     48.9647
           25           5      0.8000      0.0267   1404.9364    703.0000     49.0012
           25           6      0.8000      0.0333   1405.6013    703.0000     49.0382
           25           7      0.8000      0.0400   1406.2712    703.0000     49.0754
           25           8      0.8000      0.0467   1406.9463    703.0000     49.1130
           25           9      0.8000      0.0533   1407.6270    703.0000     49.1510
           25          10      0.8000      0.0600   1408.3134    703.0000     49.1893
           25          11      0.8000      0.0667   1409.0057    703.0000     49.2280
           25          12      0.8000      0.0733   1409.7041    703.0000     49.2672
           25          13      0.8000      0.0800   1410.4089    703.0000     49.3067
           25          14      0.8000      0.0867   1411.1202    703.0000     49.3467
           25          15      0.8000      0.0933   1411.8380    703.0000     49.3871
           25          16      0.8000      0.1000   1412.5627    703.0000     49.4279
           25          17      0.8000      0.1067   1413.2941    703.0000     49.4693
           25          18      0.8000      0.1133   1414.0325    703.0000     49.5110
           25          19      0.8000      0.1200   1414.7779    703.0000     49.5532
           25          20      0.8000      0.1267   1415.5302    703.0000     49.5959
           25          21      0.8000      0.1333   1416.2895    703.0000     49.6391
           25          22      0.8000      0.1400   1417.0557    703.0000     49.6827
           25          23      0.8000      0.1467   1417.8287    703.0000     49.7268
           25          24      0.8000      0.1533   1418.6084    703.0000     49.7714
           25          25      0.8000      0.1600   1419.3947    703.0000     49.8163
           25          26      0.8000      0.1667   1420.1872    703.0000     49.8618
           25          27      0.8000      0.1733   1420.9857    703.0000     49.9076
           25          28      0.8000      0.1800   1421.7901    703.0000     49.9539
           25          29      0.8000      0.1867   1422.5998    703.0000     50.0005
           25          30      0.8000      0.1933   1423.4146    703.0000     50.0476
           25          31      0.8000      0.2000   1424.2340    703.0000     50.0949
           26           1      0.8333      0.0000   1401.8594    703.0000     48.8312
           26           2      0.8333      0.0067   1402.4750    703.0000     48.8651
           26           3      0.8333      0.0133   1403.0957    703.0000     48.8993
           26           4      0.8333      0.0200   1403.7221    703.0000     48.9340
           26           5      0.8333      0.0267   1404.3544    703.0000     48.9690
           26           6      0.8333      0.0333   1404.9931    703.0000     49.0044
           26           7      0.8333      0.0400   1405.6384    703.0000     49.0402
           26           8      0.8333      0.0467   1406.2908    703.0000     49.0765
           26           9      0.8333      0.0533   1406.9505    703.0000     49.1132
           26          10      0.8333      0.0600   1407.6179    703.0000     49.1505
           26          11      0.8333      0.0667   1408.2934    703.0000     49.1882
           26          12      0.8333      0.0733   1408.9772    703.0000     49.2264
           26          13      0.8333      0.0800   1409.6697    703.0000     49.2652
           26          14      0.8333      0.0867   1410.3711    703.0000     49.3046
           26          15      0.8333      0.0933   1411.0817    703.0000     49.3445
           26          16      0.8333      0.1000   1411.8018    703.0000     49.3850
           26          17      0.8333      0.1067   1412.5314    703.0000     49.4262
           26          18      0.8333      0.1133   1413.2709    703.0000     49.4679
           26          19      0.8333      0.1200   1414.0204    703.0000     49.5103
           26          20      0.8333      0.1267   1414.7800    703.0000     49.5534
           26          21      0.8333      0.1333   1415.5496    703.0000     49.5970
           26          22      0.8333      0.1400   1416.3294    703.0000     49.6414
           26          23      0.8333      0.1467   1417.1193    703.0000     49.6864
           26          24      0.8333      0.1533   1417.9192    703.0000     49.7320
           26          25      0.8333      0.1600   1418.7288    703.0000     49.7782
           26          26      0.8333      0.1667   1419.5480    703.0000     49.8251
           26          27      0.8333      0.1733   1420.3764    703.0000     49.8726
           26          28      0.8333      0.1800   1421.2137    703.0000     49.9207
           26          29      0.8333      0.1867   1422.0594    703.0000     49.9694
           26          30      0.8333      0.1933   1422.9129    703.0000     50.0186
           26          31      0.8333      0.2000   1423.7737    703.0000     50.0683
           27           1      0.8667      0.0000   1401.2563    703.0000     48.7980
           27           2      0.8667      0.0067   1401.8300    703.0000     48.8295
           27           3      0.8667      0.0133   1402.4103    703.0000     48.8615
           27           4      0.8667      0.0200   1402.9977    703.0000     48.8939
           27           5      0.8667      0.0267   1403.5926    703.0000     48.9268
           27           6      0.8667      0.0333   1404.1955    703.0000     48.9602
           27           7      0.8667      0.0400   1404.8069    703.0000     48.9941
           27           8      0.8667      0.0467   1405.4272    703.0000     49.0285
           27           9      0.8667      0.0533   1406.0570    703.0000     49.0635
           27          10      0.8667      0.0600   1406.6968    703.0000     49.0991
           27          11      0.8667      0.0667   1407.3470    703.0000     49.1353
           27          12      0.8667      0.0733   1408.0082    703.0000     49.1722
           27          13      0.8667      0.0800   1408.6808    703.0000     49.2098
           27          14      0.8667      0.0867   1409.3653    703.0000     49.2482
           27          15      0.8667      0.0933   1410.0623    703.0000     49.2872
           27          16      0.8667      0.1000   1410.7721    703.0000     49.3271
           27          17      0.8667      0.1067   1411.4951    703.0000     49.3678
           27          18      0.8667      0.1133   1412.2319    703.0000     49.4093
           27          19      0.8667      0.1200   1412.9827    703.0000     49.4517
           27          20      0.8667      0.1267   1413.7478    703.0000     49.4949
           27          21      0.8667      0.1333   1414.5276    703.0000     49.5391
           27          22      0.8667      0.1400   1415.3221    703.0000     49.5841
           27          23      0.8667      0.1467   1416.1315    703.0000     49.6301
           27          24      0.8667      0.1533   1416.9559    703.0000     49.6770
           27          25      0.8667      0.1600   1417.7950    703.0000     49.7249
           27          26      0.8667      0.1667   1418.6488    703.0000     49.7737
           27          27      0.8667      0.1733   1419.5169    703.0000     49.8233
           27          28      0.8667      0.1800   1420.3987    703.0000     49.8739
           27          29      0.8667      0.1867   1421.2938    703.0000     49.9253
           27          30      0.8667      0.1933   1422.2014    703.0000     49.9776
           27          31      0.8667      0.2000   1423.1206    703.0000     50.0306
           28           1      0.9000      0.0000   1400.4827    703.0000     48.7554
           28           2      0.9000      0.0067   1401.0026    703.0000     48.7840
           28           3      0.9000      0.0133   1401.5302    703.0000     48.8130
           28           4      0.9000      0.0200   1402.0661    703.0000     48.8425
           28           5      0.9000      0.0267   1402.6110    703.0000     48.8726
           28           6      0.9000      0.0333   1403.1654    703.0000     48.9032
           28           7      0.9000      0.0400   1403.7300    703.0000     48.9344
           28           8      0.9000      0.0467   1404.3053    703.0000     48.9663
           28           9      0.9000      0.0533   1404.8921    703.0000     48.9988
           28          10      0.9000      0.0600   1405.4911    703.0000     49.0320
           28          11      0.9000      0.0667   1406.1031    703.0000     49.0660
           28          12      0.9000      0.0733   1406.7286    703.0000     49.1009
           28          13      0.9000      0.0800   1407.3687    703.0000     49.1365
           28          14      0.9000      0.0867   1408.0240    703.0000     49.1731
           28          15      0.9000      0.0933   1408.6953    703.0000     49.2107
           28          16      0.9000      0.1000   1409.3836    703.0000     49.2492
           28          17      0.9000      0.1067   1410.0895    703.0000     49.2888
           28          18      0.9000      0.1133   1410.8140    703.0000     49.3295
           28          19      0.9000      0.1200   1411.5579    703.0000     49.3713
           28          20      0.9000      0.1267   1412.3218    703.0000     49.4144
           28          21      0.9000      0.1333   1413.1066    703.0000     49.4587
           28          22      0.9000      0.1400   1413.9128    703.0000     49.5042
           28          23      0.9000      0.1467   1414.7411    703.0000     49.5512
           28          24      0.9000      0.1533   1415.5918    703.0000     49.5994
           28          25      0.9000      0.1600   1416.4653    703.0000     49.6491
           28          26      0.9000      0.1667   1417.3617    703.0000     49.7002
           28          27      0.9000      0.1733   1418.2808    703.0000     49.7526
           28          28      0.9000      0.1800   1419.2222    703.0000     49.8065
           28          29      0.9000      0.1867   1420.1853    703.0000     49.8617
           28          30      0.9000      0.1933   1421.1692    703.0000     49.9182
           28          31      0.9000      0.2000   1422.1724    703.0000     49.9759
           29           1      0.9333      0.0000   1399.5133    703.0000     48.7023
           29           2      0.9333      0.0067   1399.9652    703.0000     48.7270
           29           3      0.9333      0.0133   1400.4255    703.0000     48.7523
           29           4      0.9333      0.0200   1400.8949    703.0000     48.7781
           29           5      0.9333      0.0267   1401.3739    703.0000     48.8044
           29           6      0.9333      0.0333   1401.8634    703.0000     48.8314
           29           7      0.9333      0.0400   1402.3640    703.0000     48.8590
           29           8      0.9333      0.0467   1402.8765    703.0000     48.8872
           29           9      0.9333      0.0533   1403.4020    703.0000     48.9163
           29          10      0.9333      0.0600   1403.9411    703.0000     48.9461
           29          11      0.9333      0.0667   1404.4951    703.0000     48.9768
           29          12      0.9333      0.0733   1405.0648    703.0000     49.0084
           29          13      0.9333      0.0800   1405.6516    703.0000     49.0410
           29          14      0.9333      0.0867   1406.2565    703.0000     49.0746
           29          15      0.9333      0.0933   1406.8809    703.0000     49.1094
           29          16      0.9333      0.1000   1407.5262    703.0000     49.1453
           29          17      0.9333      0.1067   1408.1937    703.0000     49.1826
           29          18      0.9333      0.1133   1408.8851    703.0000     49.2213
           29          19      0.9333      0.1200   1409.6020    703.0000     49.2614
           29          20      0.9333      0.1267   1410.3459    703.0000     49.3032
           29          21      0.9333      0.1333   1411.1186    703.0000     49.3466
           29          22      0.9333      0.1400   1411.9218    703.0000     49.3918
           29          23      0.9333      0.1467   1412.7573    703.0000     49.4389
           29          24      0.9333      0.1533   1413.6265    703.0000     49.4880
           29          25      0.9333      0.1600   1414.5312    703.0000     49.5393
           29          26      0.9333      0.1667   1415.4725    703.0000     49.5927
           29          27      0.9333      0.1733   1416.4514    703.0000     49.6483
           29          28      0.9333      0.1800   1417.4684    703.0000     49.7063
           29          29      0.9333      0.1867   1418.5236    703.0000     49.7665
           29          30      0.9333      0.1933   1419.6160    703.0000     49.8290
           29          31      0.9333      0.2000   1420.7440    703.0000     49.8937
           30           1      0.9667      0.0000   1398.3350    703.0000     48.6378
           30           2      0.9667      0.0067   1398.7038    703.0000     48.6580
           30           3      0.9667      0.0133   1399.0806    703.0000     48.6786
           30           4      0.9667      0.0200   1399.4660    703.0000     48.6997
           30           5      0.9667      0.0267   1399.8608    703.0000     48.7213
           30           6      0.9667      0.0333   1400.2655    703.0000     48.7435
           30           7      0.9667      0.0400   1400.6810    703.0000     48.7663
           30           8      0.9667      0.0467   1401.1082    703.0000     48.7898
           30           9      0.9667      0.0533   1401.5481    703.0000     48.8140
           30          10      0.9667      0.0600   1402.0016    703.0000     48.8390
           30          11      0.9667      0.0667   1402.4700    703.0000     48.8648
           30          12      0.9667      0.0733   1402.9546    703.0000     48.8916
           30          13      0.9667      0.0800   1403.4567    703.0000     48.9193
           30          14      0.9667      0.0867   1403.9779    703.0000     48.9481
           30          15      0.9667      0.0933   1404.5199    703.0000     48.9782
           30          16      0.9667      0.1000   1405.0848    703.0000     49.0095
           30          17      0.9667      0.1067   1405.6746    703.0000     49.0422
           30          18      0.9667      0.1133   1406.2917    703.0000     49.0765
           30          19      0.9667      0.1200   1406.9388    703.0000     49.1126
           30          20      0.9667      0.1267   1407.6189    703.0000     49.1505
           30          21      0.9667      0.1333   1408.3353    703.0000     49.1905
           30          22      0.9667      0.1400   1409.0916    703.0000     49.2328
           30          23      0.9667      0.1467   1409.8919    703.0000     49.2777
           30          24      0.9667      0.1533   1410.7406    703.0000     49.3253
           30          25      0.9667      0.1600   1411.6426    703.0000     49.3761
           30          26      0.9667      0.1667   1412.6029    703.0000     49.4302
           30          27      0.9667      0.1733   1413.6268    703.0000     49.4881
           30          28      0.9667      0.1800   1414.7195    703.0000     49.5499
           30          29      0.9667      0.1867   1415.8855    703.0000     49.6161
           30          30      0.9667      0.1933   1417.1283    703.0000     49.6869
           30          31      0.9667      0.2000   1418.4484    703.0000     49.7622
           31           1      1.0000      0.0000   1396.9599    703.0000     48.5628
           31           2      1.0000      0.0067   1397.2311    703.0000     48.5776
           31           3      1.0000      0.0133   1397.5086    703.0000     48.5927
           31           4      1.0000      0.0200   1397.7928    703.0000     48.6082
           31           5      1.0000      0.0267   1398.0842    703.0000     48.6241
           31           6      1.0000      0.0333   1398.3835    703.0000     48.6404
           31           7      1.0000      0.0400   1398.6913    703.0000     48.6573
           31           8      1.0000      0.0467   1399.0083    703.0000     48.6746
           31           9      1.0000      0.0533   1399.3352    703.0000     48.6925
           31          10      1.0000      0.0600   1399.6731    703.0000     48.7110
           31          11      1.0000      0.0667   1400.0229    703.0000     48.7302
           31          12      1.0000      0.0733   1400.3857    703.0000     48.7501
           31          13      1.0000      0.0800   1400.7628    703.0000     48.7708
           31          14      1.0000      0.0867   1401.1556    703.0000     48.7924
           31          15      1.0000      0.0933   1401.5657    703.0000     48.8150
           31          16      1.0000      0.1000   1401.9950    703.0000     48.8386
           31          17      1.0000      0.1067   1402.4456    703.0000     48.8635
           31          18      1.0000      0.1133   1402.9201    703.0000     48.8897
           31          19      1.0000      0.1200   1403.4214    703.0000     48.9173
           31          20      1.0000      0.1267   1403.9530    703.0000     48.9468
           31          21      1.0000      0.1333   1404.5191    703.0000     48.9781
           31          22      1.0000      0.1400   1405.1247    703.0000     49.0117
           31          23      1.0000      0.1467   1405.7761    703.0000     49.0479
           31          24      1.0000      0.1533   1406.4811    703.0000     49.0871
           31          25      1.0000      0.1600   1407.2495    703.0000     49.1299
           31          26      1.0000      0.1667   1408.0936    703.0000     49.1770
           31          27      1.0000      0.1733   1409.0297    703.0000     49.2294
           31          28      1.0000      0.1800   1410.0787    703.0000     49.2882
           31          29      1.0000      0.1867   1411.2689    703.0000     49.3550
           31          30      1.0000      0.1933   1412.6377    703.0000     49.4322
           31          31      1.0000      0.2000   1414.2361    703.0000     49.5225
