 ====================================================================================
               Transient state solution for a 2D rectangular plate
                    for applications in steel reheating
                 e.g. Reheating furnaces for rolling processing
 ====================================================================================
 Author: Dickson Alves de Souza

 Based on lectures by professor Roberto Parreiras Tavares

 and book Numerical Heat Transfer and Fluid Flow
 by Suhas V. Patankar (1980)

 Federal University of Minas Gerais (UFMG)
 October 26th, 2017
 ====================================================================================
                              Input parameters:

 Lenght in X direction (meters):           1.0000
 Lenght in Y direction (meters):           0.2000
 Nodes in X direction:                         15
 Nodes in Y direction:                         15
 ====================================================================================

                       STAGE                1/  5
                       START Time:         0.0000
                       END Time:        1140.0000
                       Iterations:             1157

 ====================================================================================
 Temperature of fluid at left face (T left):             1223.1500
 Temperature of fluid at right face (T right):           1223.1500
 Temperature of fluid at bottom face (T bottom):         1223.1500
 Temperature of fluid at top face (T top):               1223.1500
 ------------------------------------------------------------------------------------
 Heat transfer coefficient at left face (H left):          50.0000
 Heat transfer coefficient at right face (H right):        50.0000
 Heat transfer coefficient at bottom face (H bottom):       8.0000
 Heat transfer coefficient at top face (H top):           150.0000
 ====================================================================================


 ====================================================================================

                       STAGE                2/  5
                       START Time:      1140.0000
                       END Time:        3060.0000
                       Iterations:             1157

 ====================================================================================
 Temperature of fluid at left face (T left):             1423.1500
 Temperature of fluid at right face (T right):           1423.1500
 Temperature of fluid at bottom face (T bottom):         1423.1500
 Temperature of fluid at top face (T top):               1423.1500
 ------------------------------------------------------------------------------------
 Heat transfer coefficient at left face (H left):          50.0000
 Heat transfer coefficient at right face (H right):        50.0000
 Heat transfer coefficient at bottom face (H bottom):       8.0000
 Heat transfer coefficient at top face (H top):           150.0000
 ====================================================================================


 ====================================================================================

                       STAGE                3/  5
                       START Time:      3060.0000
                       END Time:        4980.0000
                       Iterations:             1157

 ====================================================================================
 Temperature of fluid at left face (T left):             1513.1500
 Temperature of fluid at right face (T right):           1513.1500
 Temperature of fluid at bottom face (T bottom):         1513.1500
 Temperature of fluid at top face (T top):               1513.1500
 ------------------------------------------------------------------------------------
 Heat transfer coefficient at left face (H left):          50.0000
 Heat transfer coefficient at right face (H right):        50.0000
 Heat transfer coefficient at bottom face (H bottom):       8.0000
 Heat transfer coefficient at top face (H top):           150.0000
 ====================================================================================


 ====================================================================================

                       STAGE                4/  5
                       START Time:      4980.0000
                       END Time:        8400.0000
                       Iterations:             1157

 ====================================================================================
 Temperature of fluid at left face (T left):             1503.1500
 Temperature of fluid at right face (T right):           1503.1500
 Temperature of fluid at bottom face (T bottom):         1503.1500
 Temperature of fluid at top face (T top):               1523.1500
 ------------------------------------------------------------------------------------
 Heat transfer coefficient at left face (H left):          50.0000
 Heat transfer coefficient at right face (H right):        50.0000
 Heat transfer coefficient at bottom face (H bottom):       8.0000
 Heat transfer coefficient at top face (H top):           150.0000
 ====================================================================================


 ====================================================================================

                       STAGE                5/  5
                       START Time:      8400.0000
                       END Time:       18400.0000
                       Iterations:             1157

 ====================================================================================
 Temperature of fluid at left face (T left):             1393.1500
 Temperature of fluid at right face (T right):           1393.1500
 Temperature of fluid at bottom face (T bottom):         1393.1500
 Temperature of fluid at top face (T top):               1433.1500
 ------------------------------------------------------------------------------------
 Heat transfer coefficient at left face (H left):          50.0000
 Heat transfer coefficient at right face (H right):        50.0000
 Heat transfer coefficient at bottom face (H bottom):       8.0000
 Heat transfer coefficient at top face (H top):           150.0000
 ====================================================================================


 SOLUTION of LINEAR SYSTEM: TDMA (tri-diagonal matrix algorithm)
      ADI approach employed in solution.
 Tolerance:       0.0010

 ====================================================================================
                    Calculation Results
 Current time:    15000.000000000000       seconds
 Maximum Temperature :    1425.6798588108929
 Minimum Temperature :    1397.0684879119265
 Average(algebraic, non-weigthed) Temperature :    1411.9413163653924
 ====================================================================================
            I           J        X(m)        Y(m)        T(K)  Cp(J/kg.K) K(W/sq-m.K)
 ====================================================================================
            1           1      0.0000      0.0000   1397.0685    703.0000     48.5687
            1           2      0.0000      0.0143   1397.6731    703.0000     48.6017
            1           3      0.0000      0.0286   1398.3091    703.0000     48.6364
            1           4      0.0000      0.0429   1398.9826    703.0000     48.6732
            1           5      0.0000      0.0571   1399.7016    703.0000     48.7126
            1           6      0.0000      0.0714   1400.4767    703.0000     48.7551
            1           7      0.0000      0.0857   1401.3216    703.0000     48.8015
            1           8      0.0000      0.1000   1402.2546    703.0000     48.8529
            1           9      0.0000      0.1143   1403.3003    703.0000     48.9107
            1          10      0.0000      0.1286   1404.4921    703.0000     48.9766
            1          11      0.0000      0.1429   1405.8760    703.0000     49.0534
            1          12      0.0000      0.1571   1407.5161    703.0000     49.1448
            1          13      0.0000      0.1714   1409.5022    703.0000     49.2558
            1          14      0.0000      0.1857   1411.9623    703.0000     49.3941
            1          15      0.0000      0.2000   1415.0791    703.0000     49.5703
            2           1      0.0714      0.0000   1399.8890    703.0000     48.7229
            2           2      0.0714      0.0143   1400.9221    703.0000     48.7796
            2           3      0.0714      0.0286   1401.9936    703.0000     48.8385
            2           4      0.0714      0.0429   1403.1098    703.0000     48.9001
            2           5      0.0714      0.0571   1404.2781    703.0000     48.9648
            2           6      0.0714      0.0714   1405.5069    703.0000     49.0329
            2           7      0.0714      0.0857   1406.8060    703.0000     49.1052
            2           8      0.0714      0.1000   1408.1862    703.0000     49.1822
            2           9      0.0714      0.1143   1409.6598    703.0000     49.2647
            2          10      0.0714      0.1286   1411.2403    703.0000     49.3534
            2          11      0.0714      0.1429   1412.9416    703.0000     49.4493
            2          12      0.0714      0.1571   1414.7778    703.0000     49.5532
            2          13      0.0714      0.1714   1416.7610    703.0000     49.6659
            2          14      0.0714      0.1857   1418.8996    703.0000     49.7880
            2          15      0.0714      0.2000   1421.1931    703.0000     49.9195
            3           1      0.1429      0.0000   1401.7281    703.0000     48.8239
            3           2      0.1429      0.0143   1403.0327    703.0000     48.8959
            3           3      0.1429      0.0286   1404.3621    703.0000     48.9694
            3           4      0.1429      0.0429   1405.7200    703.0000     49.0448
            3           5      0.1429      0.0571   1407.1104    703.0000     49.1221
            3           6      0.1429      0.0714   1408.5370    703.0000     49.2018
            3           7      0.1429      0.0857   1410.0041    703.0000     49.2840
            3           8      0.1429      0.1000   1411.5155    703.0000     49.3689
            3           9      0.1429      0.1143   1413.0750    703.0000     49.4569
            3          10      0.1429      0.1286   1414.6859    703.0000     49.5480
            3          11      0.1429      0.1429   1416.3507    703.0000     49.6426
            3          12      0.1429      0.1571   1418.0707    703.0000     49.7406
            3          13      0.1429      0.1714   1419.8457    703.0000     49.8422
            3          14      0.1429      0.1857   1421.6735    703.0000     49.9472
            3          15      0.1429      0.2000   1423.5493    703.0000     50.0553
            4           1      0.2143      0.0000   1402.8170    703.0000     48.8840
            4           2      0.2143      0.0143   1404.2793    703.0000     48.9648
            4           3      0.2143      0.0286   1405.7516    703.0000     49.0465
            4           4      0.2143      0.0429   1407.2356    703.0000     49.1291
            4           5      0.2143      0.0571   1408.7328    703.0000     49.2127
            4           6      0.2143      0.0714   1410.2447    703.0000     49.2975
            4           7      0.2143      0.0857   1411.7727    703.0000     49.3834
            4           8      0.2143      0.1000   1413.3181    703.0000     49.4706
            4           9      0.2143      0.1143   1414.8818    703.0000     49.5591
            4          10      0.2143      0.1286   1416.4645    703.0000     49.6491
            4          11      0.2143      0.1429   1418.0666    703.0000     49.7404
            4          12      0.2143      0.1571   1419.6878    703.0000     49.8331
            4          13      0.2143      0.1714   1421.3272    703.0000     49.9273
            4          14      0.2143      0.1857   1422.9836    703.0000     50.0227
            4          15      0.2143      0.2000   1424.6546    703.0000     50.1193
            5           1      0.2857      0.0000   1403.4304    703.0000     48.9178
            5           2      0.2857      0.0143   1404.9806    703.0000     49.0037
            5           3      0.2857      0.0286   1406.5304    703.0000     49.0898
            5           4      0.2857      0.0429   1408.0803    703.0000     49.1763
            5           5      0.2857      0.0571   1409.6304    703.0000     49.2630
            5           6      0.2857      0.0714   1411.1814    703.0000     49.3501
            5           7      0.2857      0.0857   1412.7334    703.0000     49.4376
            5           8      0.2857      0.1000   1414.2869    703.0000     49.5254
            5           9      0.2857      0.1143   1415.8421    703.0000     49.6137
            5          10      0.2857      0.1286   1417.3993    703.0000     49.7023
            5          11      0.2857      0.1429   1418.9586    703.0000     49.7914
            5          12      0.2857      0.1571   1420.5199    703.0000     49.8809
            5          13      0.2857      0.1714   1422.0832    703.0000     49.9708
            5          14      0.2857      0.1857   1423.6481    703.0000     50.0611
            5          15      0.2857      0.2000   1425.2141    703.0000     50.1517
            6           1      0.3571      0.0000   1403.7616    703.0000     48.9362
            6           2      0.3571      0.0143   1405.3589    703.0000     49.0247
            6           3      0.3571      0.0286   1406.9498    703.0000     49.1132
            6           4      0.3571      0.0429   1408.5338    703.0000     49.2016
            6           5      0.3571      0.0571   1410.1107    703.0000     49.2900
            6           6      0.3571      0.0714   1411.6804    703.0000     49.3782
            6           7      0.3571      0.0857   1413.2429    703.0000     49.4664
            6           8      0.3571      0.1000   1414.7981    703.0000     49.5544
            6           9      0.3571      0.1143   1416.3463    703.0000     49.6423
            6          10      0.3571      0.1286   1417.8876    703.0000     49.7302
            6          11      0.3571      0.1429   1419.4223    703.0000     49.8179
            6          12      0.3571      0.1571   1420.9506    703.0000     49.9056
            6          13      0.3571      0.1714   1422.4731    703.0000     49.9932
            6          14      0.3571      0.1857   1423.9900    703.0000     50.0808
            6          15      0.3571      0.2000   1425.5017    703.0000     50.1684
            7           1      0.4286      0.0000   1403.9232    703.0000     48.9451
            7           2      0.4286      0.0143   1405.5436    703.0000     49.0349
            7           3      0.4286      0.0286   1407.1543    703.0000     49.1246
            7           4      0.4286      0.0429   1408.7546    703.0000     49.2140
            7           5      0.4286      0.0571   1410.3442    703.0000     49.3031
            7           6      0.4286      0.0714   1411.9226    703.0000     49.3918
            7           7      0.4286      0.0857   1413.4895    703.0000     49.4803
            7           8      0.4286      0.1000   1415.0451    703.0000     49.5684
            7           9      0.4286      0.1143   1416.5893    703.0000     49.6562
            7          10      0.4286      0.1286   1418.1224    703.0000     49.7436
            7          11      0.4286      0.1429   1419.6448    703.0000     49.8307
            7          12      0.4286      0.1571   1421.1569    703.0000     49.9175
            7          13      0.4286      0.1714   1422.6596    703.0000     50.0040
            7          14      0.4286      0.1857   1424.1534    703.0000     50.0903
            7          15      0.4286      0.2000   1425.6391    703.0000     50.1764
            8           1      0.5000      0.0000   1403.9715    703.0000     48.9478
            8           2      0.5000      0.0143   1405.5987    703.0000     49.0380
            8           3      0.5000      0.0286   1407.2153    703.0000     49.1280
            8           4      0.5000      0.0429   1408.8205    703.0000     49.2177
            8           5      0.5000      0.0571   1410.4138    703.0000     49.3070
            8           6      0.5000      0.0714   1411.9947    703.0000     49.3959
            8           7      0.5000      0.0857   1413.5630    703.0000     49.4845
            8           8      0.5000      0.1000   1415.1186    703.0000     49.5726
            8           9      0.5000      0.1143   1416.6615    703.0000     49.6603
            8          10      0.5000      0.1286   1418.1921    703.0000     49.7476
            8          11      0.5000      0.1429   1419.7108    703.0000     49.8345
            8          12      0.5000      0.1571   1421.2182    703.0000     49.9210
            8          13      0.5000      0.1714   1422.7149    703.0000     50.0072
            8          14      0.5000      0.1857   1424.2018    703.0000     50.0931
            8          15      0.5000      0.2000   1425.6799    703.0000     50.1787
            9           1      0.5714      0.0000   1403.9232    703.0000     48.9451
            9           2      0.5714      0.0143   1405.5436    703.0000     49.0350
            9           3      0.5714      0.0286   1407.1543    703.0000     49.1246
            9           4      0.5714      0.0429   1408.7547    703.0000     49.2140
            9           5      0.5714      0.0571   1410.3443    703.0000     49.3031
            9           6      0.5714      0.0714   1411.9226    703.0000     49.3919
            9           7      0.5714      0.0857   1413.4896    703.0000     49.4803
            9           8      0.5714      0.1000   1415.0451    703.0000     49.5684
            9           9      0.5714      0.1143   1416.5893    703.0000     49.6562
            9          10      0.5714      0.1286   1418.1224    703.0000     49.7436
            9          11      0.5714      0.1429   1419.6448    703.0000     49.8307
            9          12      0.5714      0.1571   1421.1570    703.0000     49.9175
            9          13      0.5714      0.1714   1422.6596    703.0000     50.0040
            9          14      0.5714      0.1857   1424.1534    703.0000     50.0903
            9          15      0.5714      0.2000   1425.6392    703.0000     50.1764
           10           1      0.6429      0.0000   1403.7617    703.0000     48.9362
           10           2      0.6429      0.0143   1405.3591    703.0000     49.0247
           10           3      0.6429      0.0286   1406.9499    703.0000     49.1132
           10           4      0.6429      0.0429   1408.5339    703.0000     49.2016
           10           5      0.6429      0.0571   1410.1109    703.0000     49.2900
           10           6      0.6429      0.0714   1411.6806    703.0000     49.3782
           10           7      0.6429      0.0857   1413.2430    703.0000     49.4664
           10           8      0.6429      0.1000   1414.7983    703.0000     49.5544
           10           9      0.6429      0.1143   1416.3465    703.0000     49.6423
           10          10      0.6429      0.1286   1417.8877    703.0000     49.7302
           10          11      0.6429      0.1429   1419.4224    703.0000     49.8179
           10          12      0.6429      0.1571   1420.9508    703.0000     49.9056
           10          13      0.6429      0.1714   1422.4732    703.0000     49.9932
           10          14      0.6429      0.1857   1423.9901    703.0000     50.0808
           10          15      0.6429      0.2000   1425.5018    703.0000     50.1684
           11           1      0.7143      0.0000   1403.4306    703.0000     48.9179
           11           2      0.7143      0.0143   1404.9808    703.0000     49.0037
           11           3      0.7143      0.0286   1406.5307    703.0000     49.0898
           11           4      0.7143      0.0429   1408.0805    703.0000     49.1763
           11           5      0.7143      0.0571   1409.6307    703.0000     49.2630
           11           6      0.7143      0.0714   1411.1817    703.0000     49.3501
           11           7      0.7143      0.0857   1412.7337    703.0000     49.4376
           11           8      0.7143      0.1000   1414.2872    703.0000     49.5254
           11           9      0.7143      0.1143   1415.8425    703.0000     49.6137
           11          10      0.7143      0.1286   1417.3996    703.0000     49.7023
           11          11      0.7143      0.1429   1418.9589    703.0000     49.7914
           11          12      0.7143      0.1571   1420.5202    703.0000     49.8809
           11          13      0.7143      0.1714   1422.0834    703.0000     49.9708
           11          14      0.7143      0.1857   1423.6483    703.0000     50.0611
           11          15      0.7143      0.2000   1425.2143    703.0000     50.1517
           12           1      0.7857      0.0000   1402.8174    703.0000     48.8840
           12           2      0.7857      0.0143   1404.2798    703.0000     48.9648
           12           3      0.7857      0.0286   1405.7521    703.0000     49.0465
           12           4      0.7857      0.0429   1407.2362    703.0000     49.1292
           12           5      0.7857      0.0571   1408.7334    703.0000     49.2128
           12           6      0.7857      0.0714   1410.2453    703.0000     49.2975
           12           7      0.7857      0.0857   1411.7733    703.0000     49.3834
           12           8      0.7857      0.1000   1413.3187    703.0000     49.4706
           12           9      0.7857      0.1143   1414.8824    703.0000     49.5592
           12          10      0.7857      0.1286   1416.4651    703.0000     49.6491
           12          11      0.7857      0.1429   1418.0671    703.0000     49.7404
           12          12      0.7857      0.1571   1419.6883    703.0000     49.8332
           12          13      0.7857      0.1714   1421.3277    703.0000     49.9273
           12          14      0.7857      0.1857   1422.9840    703.0000     50.0227
           12          15      0.7857      0.2000   1424.6550    703.0000     50.1193
           13           1      0.8571      0.0000   1401.7288    703.0000     48.8240
           13           2      0.8571      0.0143   1403.0335    703.0000     48.8959
           13           3      0.8571      0.0286   1404.3630    703.0000     48.9695
           13           4      0.8571      0.0429   1405.7210    703.0000     49.0448
           13           5      0.8571      0.0571   1407.1114    703.0000     49.1222
           13           6      0.8571      0.0714   1408.5381    703.0000     49.2019
           13           7      0.8571      0.0857   1410.0052    703.0000     49.2840
           13           8      0.8571      0.1000   1411.5166    703.0000     49.3690
           13           9      0.8571      0.1143   1413.0761    703.0000     49.4569
           13          10      0.8571      0.1286   1414.6869    703.0000     49.5481
           13          11      0.8571      0.1429   1416.3516    703.0000     49.6426
           13          12      0.8571      0.1571   1418.0716    703.0000     49.7407
           13          13      0.8571      0.1714   1419.8465    703.0000     49.8422
           13          14      0.8571      0.1857   1421.6742    703.0000     49.9472
           13          15      0.8571      0.2000   1423.5499    703.0000     50.0554
           14           1      0.9286      0.0000   1399.8902    703.0000     48.7229
           14           2      0.9286      0.0143   1400.9235    703.0000     48.7796
           14           3      0.9286      0.0286   1401.9951    703.0000     48.8386
           14           4      0.9286      0.0429   1403.1115    703.0000     48.9002
           14           5      0.9286      0.0571   1404.2798    703.0000     48.9649
           14           6      0.9286      0.0714   1405.5087    703.0000     49.0330
           14           7      0.9286      0.0857   1406.8078    703.0000     49.1053
           14           8      0.9286      0.1000   1408.1880    703.0000     49.1823
           14           9      0.9286      0.1143   1409.6616    703.0000     49.2648
           14          10      0.9286      0.1286   1411.2420    703.0000     49.3535
           14          11      0.9286      0.1429   1412.9432    703.0000     49.4494
           14          12      0.9286      0.1571   1414.7793    703.0000     49.5533
           14          13      0.9286      0.1714   1416.7624    703.0000     49.6660
           14          14      0.9286      0.1857   1418.9008    703.0000     49.7881
           14          15      0.9286      0.2000   1421.1941    703.0000     49.9196
           15           1      1.0000      0.0000   1397.0691    703.0000     48.5687
           15           2      1.0000      0.0143   1397.6738    703.0000     48.6017
           15           3      1.0000      0.0286   1398.3099    703.0000     48.6364
           15           4      1.0000      0.0429   1398.9834    703.0000     48.6733
           15           5      1.0000      0.0571   1399.7025    703.0000     48.7126
           15           6      1.0000      0.0714   1400.4776    703.0000     48.7552
           15           7      1.0000      0.0857   1401.3225    703.0000     48.8016
           15           8      1.0000      0.1000   1402.2555    703.0000     48.8530
           15           9      1.0000      0.1143   1403.3012    703.0000     48.9107
           15          10      1.0000      0.1286   1404.4930    703.0000     48.9767
           15          11      1.0000      0.1429   1405.8769    703.0000     49.0535
           15          12      1.0000      0.1571   1407.5168    703.0000     49.1448
           15          13      1.0000      0.1714   1409.5029    703.0000     49.2559
           15          14      1.0000      0.1857   1411.9629    703.0000     49.3941
           15          15      1.0000      0.2000   1415.0796    703.0000     49.5704
