 ====================================================================================
               Transient state solution for a 2D rectangular plate
                    for applications in steel reheating
                 e.g. Reheating furnaces for rolling processing
 ====================================================================================
 Author: Dickson Alves de Souza

 Based on lectures by professor Roberto Parreiras Tavares

 and book Numerical Heat Transfer and Fluid Flow
 by Suhas V. Patankar (1980)

 Federal University of Minas Gerais (UFMG)
 October 26th, 2017
 ====================================================================================
                              Input parameters:

 Lenght in X direction (meters):           1.0000
 Lenght in Y direction (meters):           0.2000
 Nodes in X direction:                         15
 Nodes in Y direction:                         15
 ====================================================================================

                       STAGE                1/  5
                       START Time:         0.0000
                       END Time:        1140.0000
                       Iterations:              788

 ====================================================================================
 Temperature of fluid at left face (T left):             1223.1500
 Temperature of fluid at right face (T right):           1223.1500
 Temperature of fluid at bottom face (T bottom):         1223.1500
 Temperature of fluid at top face (T top):               1223.1500
 ------------------------------------------------------------------------------------
 Heat transfer coefficient at left face (H left):          50.0000
 Heat transfer coefficient at right face (H right):        50.0000
 Heat transfer coefficient at bottom face (H bottom):       8.0000
 Heat transfer coefficient at top face (H top):           150.0000
 ====================================================================================


 ====================================================================================

                       STAGE                2/  5
                       START Time:      1140.0000
                       END Time:        3060.0000
                       Iterations:              788

 ====================================================================================
 Temperature of fluid at left face (T left):             1423.1500
 Temperature of fluid at right face (T right):           1423.1500
 Temperature of fluid at bottom face (T bottom):         1423.1500
 Temperature of fluid at top face (T top):               1423.1500
 ------------------------------------------------------------------------------------
 Heat transfer coefficient at left face (H left):          50.0000
 Heat transfer coefficient at right face (H right):        50.0000
 Heat transfer coefficient at bottom face (H bottom):       8.0000
 Heat transfer coefficient at top face (H top):           150.0000
 ====================================================================================


 ====================================================================================

                       STAGE                3/  5
                       START Time:      3060.0000
                       END Time:        4980.0000
                       Iterations:              788

 ====================================================================================
 Temperature of fluid at left face (T left):             1513.1500
 Temperature of fluid at right face (T right):           1513.1500
 Temperature of fluid at bottom face (T bottom):         1513.1500
 Temperature of fluid at top face (T top):               1513.1500
 ------------------------------------------------------------------------------------
 Heat transfer coefficient at left face (H left):          50.0000
 Heat transfer coefficient at right face (H right):        50.0000
 Heat transfer coefficient at bottom face (H bottom):       8.0000
 Heat transfer coefficient at top face (H top):           150.0000
 ====================================================================================


 ====================================================================================

                       STAGE                4/  5
                       START Time:      4980.0000
                       END Time:        8400.0000
                       Iterations:              788

 ====================================================================================
 Temperature of fluid at left face (T left):             1503.1500
 Temperature of fluid at right face (T right):           1503.1500
 Temperature of fluid at bottom face (T bottom):         1503.1500
 Temperature of fluid at top face (T top):               1523.1500
 ------------------------------------------------------------------------------------
 Heat transfer coefficient at left face (H left):          50.0000
 Heat transfer coefficient at right face (H right):        50.0000
 Heat transfer coefficient at bottom face (H bottom):       8.0000
 Heat transfer coefficient at top face (H top):           150.0000
 ====================================================================================


 ====================================================================================

                       STAGE                5/  5
                       START Time:      8400.0000
                       END Time:       18400.0000
                       Iterations:              788

 ====================================================================================
 Temperature of fluid at left face (T left):             1393.1500
 Temperature of fluid at right face (T right):           1393.1500
 Temperature of fluid at bottom face (T bottom):         1393.1500
 Temperature of fluid at top face (T top):               1433.1500
 ------------------------------------------------------------------------------------
 Heat transfer coefficient at left face (H left):          50.0000
 Heat transfer coefficient at right face (H right):        50.0000
 Heat transfer coefficient at bottom face (H bottom):       8.0000
 Heat transfer coefficient at top face (H top):           150.0000
 ====================================================================================


 SOLUTION of LINEAR SYSTEM: TDMA (tri-diagonal matrix algorithm)
      ADI approach employed in solution.
 Tolerance:       0.0010

 ====================================================================================
                    Calculation Results
 Current time:    8800.0000000000000       seconds
 Maximum Temperature :    1491.9480692423274
 Minimum Temperature :    1432.6849453768752
 Average(algebraic, non-weigthed) Temperature :    1475.3639068210689
 ====================================================================================
            I           J        X(m)        Y(m)        T(K)  Cp(J/kg.K) K(W/sq-m.K)
 ====================================================================================
            1           1      0.0000      0.0000   1432.6850    703.0000     50.5883
            1           2      0.0000      0.0143   1438.1321    703.0000     50.9108
            1           3      0.0000      0.0286   1442.5652    703.0000     51.1760
            1           4      0.0000      0.0429   1446.0723    703.0000     51.3873
            1           5      0.0000      0.0571   1448.7694    703.0000     51.5509
            1           6      0.0000      0.0714   1450.7676    703.0000     51.6726
            1           7      0.0000      0.0857   1452.1585    703.0000     51.7576
            1           8      0.0000      0.1000   1453.0081    703.0000     51.8096
            1           9      0.0000      0.1143   1453.3568    703.0000     51.8310
            1          10      0.0000      0.1286   1453.2215    703.0000     51.8227
            1          11      0.0000      0.1429   1452.6007    703.0000     51.7847
            1          12      0.0000      0.1571   1451.4846    703.0000     51.7164
            1          13      0.0000      0.1714   1449.8719    703.0000     51.6180
            1          14      0.0000      0.1857   1447.8005    703.0000     51.4920
            1          15      0.0000      0.2000   1445.4018    703.0000     51.3468
            2           1      0.0714      0.0000   1450.4817    703.0000     51.6551
            2           2      0.0714      0.0143   1458.4097    703.0000     52.1423
            2           3      0.0714      0.0286   1464.9443    703.0000     52.5493
            2           4      0.0714      0.0429   1470.1778    703.0000     52.8788
            2           5      0.0714      0.0571   1474.2422    703.0000     53.1367
            2           6      0.0714      0.0714   1477.2682    703.0000     53.3300
            2           7      0.0714      0.0857   1479.3631    703.0000     53.4643
            2           8      0.0714      0.1000   1480.6009    703.0000     53.5440
            2           9      0.0714      0.1143   1481.0176    703.0000     53.5708
            2          10      0.0714      0.1286   1480.6105    703.0000     53.5446
            2          11      0.0714      0.1429   1479.3406    703.0000     53.4629
            2          12      0.0714      0.1571   1477.1383    703.0000     53.3216
            2          13      0.0714      0.1714   1473.9151    703.0000     53.1159
            2          14      0.0714      0.1857   1469.5844    703.0000     52.8413
            2          15      0.0714      0.2000   1464.1001    703.0000     52.4965
            3           1      0.1429      0.0000   1455.8292    703.0000     51.9830
            3           2      0.1429      0.0143   1464.5083    703.0000     52.5220
            3           3      0.1429      0.0286   1471.6957    703.0000     52.9749
            3           4      0.1429      0.0429   1477.4793    703.0000     53.3435
            3           5      0.1429      0.0571   1481.9878    703.0000     53.6334
            3           6      0.1429      0.0714   1485.3492    703.0000     53.8509
            3           7      0.1429      0.0857   1487.6682    703.0000     54.0018
            3           8      0.1429      0.1000   1489.0144    703.0000     54.0896
            3           9      0.1429      0.1143   1489.4183    703.0000     54.1160
            3          10      0.1429      0.1286   1488.8695    703.0000     54.0801
            3          11      0.1429      0.1429   1487.3193    703.0000     53.9790
            3          12      0.1429      0.1571   1484.6873    703.0000     53.8080
            3          13      0.1429      0.1714   1480.8738    703.0000     53.5615
            3          14      0.1429      0.1857   1475.7834    703.0000     53.2350
            3          15      0.1429      0.2000   1469.3672    703.0000     52.8275
            4           1      0.2143      0.0000   1457.1987    703.0000     52.0675
            4           2      0.2143      0.0143   1466.0714    703.0000     52.6200
            4           3      0.2143      0.0286   1473.4296    703.0000     53.0850
            4           4      0.2143      0.0429   1479.3591    703.0000     53.4641
            4           5      0.2143      0.0571   1483.9868    703.0000     53.7626
            4           6      0.2143      0.0714   1487.4389    703.0000     53.9868
            4           7      0.2143      0.0857   1489.8179    703.0000     54.1421
            4           8      0.2143      0.1000   1491.1917    703.0000     54.2320
            4           9      0.2143      0.1143   1491.5887    703.0000     54.2580
            4          10      0.2143      0.1286   1490.9966    703.0000     54.2192
            4          11      0.2143      0.1429   1489.3650    703.0000     54.1125
            4          12      0.2143      0.1571   1486.6123    703.0000     53.9330
            4          13      0.2143      0.1714   1482.6381    703.0000     53.6754
            4          14      0.2143      0.1857   1477.3476    703.0000     53.3350
            4          15      0.2143      0.2000   1470.6939    703.0000     52.9114
            5           1      0.2857      0.0000   1457.4159    703.0000     52.0809
            5           2      0.2857      0.0143   1466.3197    703.0000     52.6356
            5           3      0.2857      0.0286   1473.7061    703.0000     53.1026
            5           4      0.2857      0.0429   1479.6606    703.0000     53.4835
            5           5      0.2857      0.0571   1484.3096    703.0000     53.7835
            5           6      0.2857      0.0714   1487.7786    703.0000     54.0089
            5           7      0.2857      0.0857   1490.1697    703.0000     54.1651
            5           8      0.2857      0.1000   1491.5503    703.0000     54.2555
            5           9      0.2857      0.1143   1491.9481    703.0000     54.2816
            5          10      0.2857      0.1286   1491.3504    703.0000     54.2424
            5          11      0.2857      0.1429   1489.7064    703.0000     54.1348
            5          12      0.2857      0.1571   1486.9343    703.0000     53.9540
            5          13      0.2857      0.1714   1482.9336    703.0000     53.6945
            5          14      0.2857      0.1857   1477.6097    703.0000     53.3518
            5          15      0.2857      0.2000   1470.9162    703.0000     52.9255
            6           1      0.3571      0.0000   1457.3441    703.0000     52.0764
            6           2      0.3571      0.0143   1466.2382    703.0000     52.6305
            6           3      0.3571      0.0286   1473.6167    703.0000     53.0969
            6           4      0.3571      0.0429   1479.5652    703.0000     53.4773
            6           5      0.3571      0.0571   1484.2102    703.0000     53.7771
            6           6      0.3571      0.0714   1487.6771    703.0000     54.0023
            6           7      0.3571      0.0857   1490.0680    703.0000     54.1584
            6           8      0.3571      0.1000   1491.4501    703.0000     54.2489
            6           9      0.3571      0.1143   1491.8512    703.0000     54.2753
            6          10      0.3571      0.1286   1491.2582    703.0000     54.2364
            6          11      0.3571      0.1429   1489.6204    703.0000     54.1292
            6          12      0.3571      0.1571   1486.8554    703.0000     53.9488
            6          13      0.3571      0.1714   1482.8628    703.0000     53.6899
            6          14      0.3571      0.1857   1477.5478    703.0000     53.3479
            6          15      0.3571      0.2000   1470.8639    703.0000     52.9222
            7           1      0.4286      0.0000   1457.2475    703.0000     52.0705
            7           2      0.4286      0.0143   1466.1282    703.0000     52.6236
            7           3      0.4286      0.0286   1473.4954    703.0000     53.0892
            7           4      0.4286      0.0429   1479.4347    703.0000     53.4689
            7           5      0.4286      0.0571   1484.0728    703.0000     53.7682
            7           6      0.4286      0.0714   1487.5352    703.0000     53.9931
            7           7      0.4286      0.0857   1489.9240    703.0000     54.1490
            7           8      0.4286      0.1000   1491.3065    703.0000     54.2395
            7           9      0.4286      0.1143   1491.7103    703.0000     54.2660
            7          10      0.4286      0.1286   1491.1224    703.0000     54.2275
            7          11      0.4286      0.1429   1489.4918    703.0000     54.1208
            7          12      0.4286      0.1571   1486.7362    703.0000     53.9411
            7          13      0.4286      0.1714   1482.7549    703.0000     53.6829
            7          14      0.4286      0.1857   1477.4530    703.0000     53.3418
            7          15      0.4286      0.2000   1470.7837    703.0000     52.9171
            8           1      0.5000      0.0000   1457.2089    703.0000     52.0681
            8           2      0.5000      0.0143   1466.0841    703.0000     52.6208
            8           3      0.5000      0.0286   1473.4467    703.0000     53.0861
            8           4      0.5000      0.0429   1479.3823    703.0000     53.4656
            8           5      0.5000      0.0571   1484.0176    703.0000     53.7646
            8           6      0.5000      0.0714   1487.4781    703.0000     53.9894
            8           7      0.5000      0.0857   1489.8659    703.0000     54.1452
            8           8      0.5000      0.1000   1491.2485    703.0000     54.2357
            8           9      0.5000      0.1143   1491.6533    703.0000     54.2623
            8          10      0.5000      0.1286   1491.0675    703.0000     54.2239
            8          11      0.5000      0.1429   1489.4398    703.0000     54.1174
            8          12      0.5000      0.1571   1486.6879    703.0000     53.9379
            8          13      0.5000      0.1714   1482.7111    703.0000     53.6801
            8          14      0.5000      0.1857   1477.4144    703.0000     53.3393
            8          15      0.5000      0.2000   1470.7511    703.0000     52.9150
            9           1      0.5714      0.0000   1457.2475    703.0000     52.0705
            9           2      0.5714      0.0143   1466.1281    703.0000     52.6236
            9           3      0.5714      0.0286   1473.4953    703.0000     53.0892
            9           4      0.5714      0.0429   1479.4347    703.0000     53.4689
            9           5      0.5714      0.0571   1484.0727    703.0000     53.7682
            9           6      0.5714      0.0714   1487.5351    703.0000     53.9931
            9           7      0.5714      0.0857   1489.9239    703.0000     54.1490
            9           8      0.5714      0.1000   1491.3064    703.0000     54.2395
            9           9      0.5714      0.1143   1491.7102    703.0000     54.2660
            9          10      0.5714      0.1286   1491.1223    703.0000     54.2275
            9          11      0.5714      0.1429   1489.4918    703.0000     54.1208
            9          12      0.5714      0.1571   1486.7362    703.0000     53.9411
            9          13      0.5714      0.1714   1482.7549    703.0000     53.6829
            9          14      0.5714      0.1857   1477.4529    703.0000     53.3418
            9          15      0.5714      0.2000   1470.7837    703.0000     52.9171
           10           1      0.6429      0.0000   1457.3440    703.0000     52.0764
           10           2      0.6429      0.0143   1466.2381    703.0000     52.6305
           10           3      0.6429      0.0286   1473.6166    703.0000     53.0969
           10           4      0.6429      0.0429   1479.5651    703.0000     53.4773
           10           5      0.6429      0.0571   1484.2101    703.0000     53.7771
           10           6      0.6429      0.0714   1487.6770    703.0000     54.0023
           10           7      0.6429      0.0857   1490.0678    703.0000     54.1584
           10           8      0.6429      0.1000   1491.4500    703.0000     54.2489
           10           9      0.6429      0.1143   1491.8511    703.0000     54.2752
           10          10      0.6429      0.1286   1491.2581    703.0000     54.2364
           10          11      0.6429      0.1429   1489.6202    703.0000     54.1292
           10          12      0.6429      0.1571   1486.8552    703.0000     53.9488
           10          13      0.6429      0.1714   1482.8627    703.0000     53.6899
           10          14      0.6429      0.1857   1477.5477    703.0000     53.3479
           10          15      0.6429      0.2000   1470.8638    703.0000     52.9222
           11           1      0.7143      0.0000   1457.4157    703.0000     52.0809
           11           2      0.7143      0.0143   1466.3195    703.0000     52.6356
           11           3      0.7143      0.0286   1473.7059    703.0000     53.1026
           11           4      0.7143      0.0429   1479.6604    703.0000     53.4834
           11           5      0.7143      0.0571   1484.3094    703.0000     53.7835
           11           6      0.7143      0.0714   1487.7784    703.0000     54.0089
           11           7      0.7143      0.0857   1490.1695    703.0000     54.1651
           11           8      0.7143      0.1000   1491.5501    703.0000     54.2555
           11           9      0.7143      0.1143   1491.9479    703.0000     54.2816
           11          10      0.7143      0.1286   1491.3502    703.0000     54.2424
           11          11      0.7143      0.1429   1489.7062    703.0000     54.1348
           11          12      0.7143      0.1571   1486.9341    703.0000     53.9540
           11          13      0.7143      0.1714   1482.9334    703.0000     53.6945
           11          14      0.7143      0.1857   1477.6096    703.0000     53.3518
           11          15      0.7143      0.2000   1470.9161    703.0000     52.9255
           12           1      0.7857      0.0000   1457.1986    703.0000     52.0674
           12           2      0.7857      0.0143   1466.0712    703.0000     52.6200
           12           3      0.7857      0.0286   1473.4294    703.0000     53.0850
           12           4      0.7857      0.0429   1479.3589    703.0000     53.4641
           12           5      0.7857      0.0571   1483.9866    703.0000     53.7626
           12           6      0.7857      0.0714   1487.4387    703.0000     53.9868
           12           7      0.7857      0.0857   1489.8177    703.0000     54.1421
           12           8      0.7857      0.1000   1491.1915    703.0000     54.2320
           12           9      0.7857      0.1143   1491.5885    703.0000     54.2580
           12          10      0.7857      0.1286   1490.9964    703.0000     54.2192
           12          11      0.7857      0.1429   1489.3648    703.0000     54.1125
           12          12      0.7857      0.1571   1486.6121    703.0000     53.9330
           12          13      0.7857      0.1714   1482.6380    703.0000     53.6754
           12          14      0.7857      0.1857   1477.3475    703.0000     53.3350
           12          15      0.7857      0.2000   1470.6938    703.0000     52.9114
           13           1      0.8571      0.0000   1455.8291    703.0000     51.9830
           13           2      0.8571      0.0143   1464.5083    703.0000     52.5220
           13           3      0.8571      0.0286   1471.6957    703.0000     52.9749
           13           4      0.8571      0.0429   1477.4792    703.0000     53.3435
           13           5      0.8571      0.0571   1481.9877    703.0000     53.6334
           13           6      0.8571      0.0714   1485.3492    703.0000     53.8509
           13           7      0.8571      0.0857   1487.6681    703.0000     54.0017
           13           8      0.8571      0.1000   1489.0144    703.0000     54.0896
           13           9      0.8571      0.1143   1489.4183    703.0000     54.1160
           13          10      0.8571      0.1286   1488.8694    703.0000     54.0801
           13          11      0.8571      0.1429   1487.3193    703.0000     53.9790
           13          12      0.8571      0.1571   1484.6873    703.0000     53.8080
           13          13      0.8571      0.1714   1480.8738    703.0000     53.5615
           13          14      0.8571      0.1857   1475.7834    703.0000     53.2350
           13          15      0.8571      0.2000   1469.3672    703.0000     52.8275
           14           1      0.9286      0.0000   1450.4820    703.0000     51.6552
           14           2      0.9286      0.0143   1458.4100    703.0000     52.1424
           14           3      0.9286      0.0286   1464.9446    703.0000     52.5493
           14           4      0.9286      0.0429   1470.1781    703.0000     52.8788
           14           5      0.9286      0.0571   1474.2426    703.0000     53.1367
           14           6      0.9286      0.0714   1477.2686    703.0000     53.3300
           14           7      0.9286      0.0857   1479.3635    703.0000     53.4644
           14           8      0.9286      0.1000   1480.6014    703.0000     53.5440
           14           9      0.9286      0.1143   1481.0180    703.0000     53.5708
           14          10      0.9286      0.1286   1480.6109    703.0000     53.5446
           14          11      0.9286      0.1429   1479.3410    703.0000     53.4629
           14          12      0.9286      0.1571   1477.1388    703.0000     53.3217
           14          13      0.9286      0.1714   1473.9155    703.0000     53.1159
           14          14      0.9286      0.1857   1469.5848    703.0000     52.8413
           14          15      0.9286      0.2000   1464.1005    703.0000     52.4965
           15           1      1.0000      0.0000   1432.6849    703.0000     50.5883
           15           2      1.0000      0.0143   1438.1321    703.0000     50.9108
           15           3      1.0000      0.0286   1442.5652    703.0000     51.1760
           15           4      1.0000      0.0429   1446.0722    703.0000     51.3873
           15           5      1.0000      0.0571   1448.7693    703.0000     51.5509
           15           6      1.0000      0.0714   1450.7676    703.0000     51.6726
           15           7      1.0000      0.0857   1452.1584    703.0000     51.7576
           15           8      1.0000      0.1000   1453.0081    703.0000     51.8096
           15           9      1.0000      0.1143   1453.3568    703.0000     51.8310
           15          10      1.0000      0.1286   1453.2214    703.0000     51.8227
           15          11      1.0000      0.1429   1452.6006    703.0000     51.7847
           15          12      1.0000      0.1571   1451.4846    703.0000     51.7164
           15          13      1.0000      0.1714   1449.8719    703.0000     51.6180
           15          14      1.0000      0.1857   1447.8005    703.0000     51.4920
           15          15      1.0000      0.2000   1445.4018    703.0000     51.3468
