 ====================================================================================
               Transient state solution for a 2D rectangular plate
                    for applications in steel reheating
                 e.g. Reheating furnaces for rolling processing
 ====================================================================================
 Author: Dickson Alves de Souza

 Based on lectures by professor Roberto Parreiras Tavares

 and book Numerical Heat Transfer and Fluid Flow
 by Suhas V. Patankar (1980)

 Federal University of Minas Gerais (UFMG)
 October 26th, 2017
 ====================================================================================
                              Input parameters:

 Lenght in X direction (meters):           1.0000
 Lenght in Y direction (meters):           0.2000
 Nodes in X direction:                         15
 Nodes in Y direction:                         15
 ====================================================================================

                       STAGE                1/  5
                       START Time:         0.0000
                       END Time:        1140.0000
                       Iterations:             1165

 ====================================================================================
 Temperature of fluid at left face (T left):             1223.1500
 Temperature of fluid at right face (T right):           1223.1500
 Temperature of fluid at bottom face (T bottom):         1223.1500
 Temperature of fluid at top face (T top):               1223.1500
 ------------------------------------------------------------------------------------
 Heat transfer coefficient at left face (H left):          50.0000
 Heat transfer coefficient at right face (H right):        50.0000
 Heat transfer coefficient at bottom face (H bottom):       8.0000
 Heat transfer coefficient at top face (H top):           150.0000
 ====================================================================================


 ====================================================================================

                       STAGE                2/  5
                       START Time:      1140.0000
                       END Time:        3060.0000
                       Iterations:             1165

 ====================================================================================
 Temperature of fluid at left face (T left):             1423.1500
 Temperature of fluid at right face (T right):           1423.1500
 Temperature of fluid at bottom face (T bottom):         1423.1500
 Temperature of fluid at top face (T top):               1423.1500
 ------------------------------------------------------------------------------------
 Heat transfer coefficient at left face (H left):          50.0000
 Heat transfer coefficient at right face (H right):        50.0000
 Heat transfer coefficient at bottom face (H bottom):       8.0000
 Heat transfer coefficient at top face (H top):           150.0000
 ====================================================================================


 ====================================================================================

                       STAGE                3/  5
                       START Time:      3060.0000
                       END Time:        4980.0000
                       Iterations:             1165

 ====================================================================================
 Temperature of fluid at left face (T left):             1513.1500
 Temperature of fluid at right face (T right):           1513.1500
 Temperature of fluid at bottom face (T bottom):         1513.1500
 Temperature of fluid at top face (T top):               1513.1500
 ------------------------------------------------------------------------------------
 Heat transfer coefficient at left face (H left):          50.0000
 Heat transfer coefficient at right face (H right):        50.0000
 Heat transfer coefficient at bottom face (H bottom):       8.0000
 Heat transfer coefficient at top face (H top):           150.0000
 ====================================================================================


 ====================================================================================

                       STAGE                4/  5
                       START Time:      4980.0000
                       END Time:        8400.0000
                       Iterations:             1165

 ====================================================================================
 Temperature of fluid at left face (T left):             1503.1500
 Temperature of fluid at right face (T right):           1503.1500
 Temperature of fluid at bottom face (T bottom):         1503.1500
 Temperature of fluid at top face (T top):               1523.1500
 ------------------------------------------------------------------------------------
 Heat transfer coefficient at left face (H left):          50.0000
 Heat transfer coefficient at right face (H right):        50.0000
 Heat transfer coefficient at bottom face (H bottom):       8.0000
 Heat transfer coefficient at top face (H top):           150.0000
 ====================================================================================


 ====================================================================================

                       STAGE                5/  5
                       START Time:      8400.0000
                       END Time:       18400.0000
                       Iterations:             1165

 ====================================================================================
 Temperature of fluid at left face (T left):             1393.1500
 Temperature of fluid at right face (T right):           1393.1500
 Temperature of fluid at bottom face (T bottom):         1393.1500
 Temperature of fluid at top face (T top):               1433.1500
 ------------------------------------------------------------------------------------
 Heat transfer coefficient at left face (H left):          50.0000
 Heat transfer coefficient at right face (H right):        50.0000
 Heat transfer coefficient at bottom face (H bottom):       8.0000
 Heat transfer coefficient at top face (H top):           150.0000
 ====================================================================================


 SOLUTION of LINEAR SYSTEM: TDMA (tri-diagonal matrix algorithm)
      ADI approach employed in solution.
 Tolerance:       0.0010

 ====================================================================================
                    Calculation Results
 Current time:    15200.000000000000       seconds
 Maximum Temperature :    1425.6151168960778
 Minimum Temperature :    1397.0485644094667
 Average(algebraic, non-weigthed) Temperature :    1411.8693550850751
 ====================================================================================
            I           J        X(m)        Y(m)        T(K)  Cp(J/kg.K) K(W/sq-m.K)
 ====================================================================================
            1           1      0.0000      0.0000   1397.0486    703.0000     48.5676
            1           2      0.0000      0.0143   1397.6503    703.0000     48.6004
            1           3      0.0000      0.0286   1398.2839    703.0000     48.6350
            1           4      0.0000      0.0429   1398.9554    703.0000     48.6717
            1           5      0.0000      0.0571   1399.6729    703.0000     48.7110
            1           6      0.0000      0.0714   1400.4470    703.0000     48.7535
            1           7      0.0000      0.0857   1401.2914    703.0000     48.7999
            1           8      0.0000      0.1000   1402.2244    703.0000     48.8513
            1           9      0.0000      0.1143   1403.2707    703.0000     48.9090
            1          10      0.0000      0.1286   1404.4636    703.0000     48.9750
            1          11      0.0000      0.1429   1405.8491    703.0000     49.0519
            1          12      0.0000      0.1571   1407.4911    703.0000     49.1434
            1          13      0.0000      0.1714   1409.4797    703.0000     49.2546
            1          14      0.0000      0.1857   1411.9426    703.0000     49.3930
            1          15      0.0000      0.2000   1415.0626    703.0000     49.5694
            2           1      0.0714      0.0000   1399.8535    703.0000     48.7209
            2           2      0.0714      0.0143   1400.8815    703.0000     48.7773
            2           3      0.0714      0.0286   1401.9487    703.0000     48.8361
            2           4      0.0714      0.0429   1403.0614    703.0000     48.8975
            2           5      0.0714      0.0571   1404.2270    703.0000     48.9619
            2           6      0.0714      0.0714   1405.4541    703.0000     49.0300
            2           7      0.0714      0.0857   1406.7522    703.0000     49.1022
            2           8      0.0714      0.1000   1408.1325    703.0000     49.1792
            2           9      0.0714      0.1143   1409.6072    703.0000     49.2617
            2          10      0.0714      0.1286   1411.1896    703.0000     49.3506
            2          11      0.0714      0.1429   1412.8937    703.0000     49.4466
            2          12      0.0714      0.1571   1414.7334    703.0000     49.5507
            2          13      0.0714      0.1714   1416.7210    703.0000     49.6637
            2          14      0.0714      0.1857   1418.8646    703.0000     49.7860
            2          15      0.0714      0.2000   1421.1637    703.0000     49.9179
            3           1      0.1429      0.0000   1401.6791    703.0000     48.8212
            3           2      0.1429      0.0143   1402.9767    703.0000     48.8928
            3           3      0.1429      0.0286   1404.3002    703.0000     48.9660
            3           4      0.1429      0.0429   1405.6533    703.0000     49.0410
            3           5      0.1429      0.0571   1407.0399    703.0000     49.1182
            3           6      0.1429      0.0714   1408.4642    703.0000     49.1977
            3           7      0.1429      0.0857   1409.9301    703.0000     49.2798
            3           8      0.1429      0.1000   1411.4416    703.0000     49.3648
            3           9      0.1429      0.1143   1413.0025    703.0000     49.4528
            3          10      0.1429      0.1286   1414.6160    703.0000     49.5441
            3          11      0.1429      0.1429   1416.2846    703.0000     49.6388
            3          12      0.1429      0.1571   1418.0096    703.0000     49.7371
            3          13      0.1429      0.1714   1419.7906    703.0000     49.8390
            3          14      0.1429      0.1857   1421.6253    703.0000     49.9444
            3          15      0.1429      0.2000   1423.5088    703.0000     50.0530
            4           1      0.2143      0.0000   1402.7571    703.0000     48.8807
            4           2      0.2143      0.0143   1404.2109    703.0000     48.9610
            4           3      0.2143      0.0286   1405.6760    703.0000     49.0423
            4           4      0.2143      0.0429   1407.1540    703.0000     49.1246
            4           5      0.2143      0.0571   1408.6467    703.0000     49.2079
            4           6      0.2143      0.0714   1410.1556    703.0000     49.2925
            4           7      0.2143      0.0857   1411.6822    703.0000     49.3783
            4           8      0.2143      0.1000   1413.2277    703.0000     49.4655
            4           9      0.2143      0.1143   1414.7931    703.0000     49.5541
            4          10      0.2143      0.1286   1416.3791    703.0000     49.6442
            4          11      0.2143      0.1429   1417.9859    703.0000     49.7358
            4          12      0.2143      0.1571   1419.6131    703.0000     49.8289
            4          13      0.2143      0.1714   1421.2599    703.0000     49.9234
            4          14      0.2143      0.1857   1422.9246    703.0000     50.0193
            4          15      0.2143      0.2000   1424.6051    703.0000     50.1164
            5           1      0.2857      0.0000   1403.3622    703.0000     48.9141
            5           2      0.2857      0.0143   1404.9027    703.0000     48.9994
            5           3      0.2857      0.0286   1406.4443    703.0000     49.0850
            5           4      0.2857      0.0429   1407.9874    703.0000     49.1711
            5           5      0.2857      0.0571   1409.5325    703.0000     49.2575
            5           6      0.2857      0.0714   1411.0800    703.0000     49.3444
            5           7      0.2857      0.0857   1412.6304    703.0000     49.4318
            5           8      0.2857      0.1000   1414.1841    703.0000     49.5196
            5           9      0.2857      0.1143   1415.7413    703.0000     49.6079
            5          10      0.2857      0.1286   1417.3021    703.0000     49.6968
            5          11      0.2857      0.1429   1418.8667    703.0000     49.7861
            5          12      0.2857      0.1571   1420.4349    703.0000     49.8760
            5          13      0.2857      0.1714   1422.0065    703.0000     49.9663
            5          14      0.2857      0.1857   1423.5810    703.0000     50.0572
            5          15      0.2857      0.2000   1425.1577    703.0000     50.1484
            6           1      0.3571      0.0000   1403.6877    703.0000     48.9321
            6           2      0.3571      0.0143   1405.2746    703.0000     49.0200
            6           3      0.3571      0.0286   1406.8565    703.0000     49.1080
            6           4      0.3571      0.0429   1408.4332    703.0000     49.1960
            6           5      0.3571      0.0571   1410.0046    703.0000     49.2840
            6           6      0.3571      0.0714   1411.5706    703.0000     49.3720
            6           7      0.3571      0.0857   1413.1313    703.0000     49.4601
            6           8      0.3571      0.1000   1414.6867    703.0000     49.5481
            6           9      0.3571      0.1143   1416.2370    703.0000     49.6361
            6          10      0.3571      0.1286   1417.7823    703.0000     49.7242
            6          11      0.3571      0.1429   1419.3227    703.0000     49.8122
            6          12      0.3571      0.1571   1420.8585    703.0000     49.9003
            6          13      0.3571      0.1714   1422.3900    703.0000     49.9884
            6          14      0.3571      0.1857   1423.9173    703.0000     50.0766
            6          15      0.3571      0.2000   1425.4406    703.0000     50.1649
            7           1      0.4286      0.0000   1403.8460    703.0000     48.9408
            7           2      0.4286      0.0143   1405.4555    703.0000     49.0301
            7           3      0.4286      0.0286   1407.0568    703.0000     49.1192
            7           4      0.4286      0.0429   1408.6496    703.0000     49.2081
            7           5      0.4286      0.0571   1410.2333    703.0000     49.2968
            7           6      0.4286      0.0714   1411.8079    703.0000     49.3854
            7           7      0.4286      0.0857   1413.3730    703.0000     49.4737
            7           8      0.4286      0.1000   1414.9287    703.0000     49.5618
            7           9      0.4286      0.1143   1416.4751    703.0000     49.6497
            7          10      0.4286      0.1286   1418.0124    703.0000     49.7373
            7          11      0.4286      0.1429   1419.5408    703.0000     49.8247
            7          12      0.4286      0.1571   1421.0607    703.0000     49.9119
            7          13      0.4286      0.1714   1422.5728    703.0000     49.9990
            7          14      0.4286      0.1857   1424.0774    703.0000     50.0859
            7          15      0.4286      0.2000   1425.5753    703.0000     50.1727
            8           1      0.5000      0.0000   1403.8933    703.0000     48.9434
            8           2      0.5000      0.0143   1405.5094    703.0000     49.0331
            8           3      0.5000      0.0286   1407.1165    703.0000     49.1225
            8           4      0.5000      0.0429   1408.7140    703.0000     49.2117
            8           5      0.5000      0.0571   1410.3014    703.0000     49.3007
            8           6      0.5000      0.0714   1411.8784    703.0000     49.3894
            8           7      0.5000      0.0857   1413.4448    703.0000     49.4778
            8           8      0.5000      0.1000   1415.0006    703.0000     49.5659
            8           9      0.5000      0.1143   1416.5458    703.0000     49.6537
            8          10      0.5000      0.1286   1418.0806    703.0000     49.7412
            8          11      0.5000      0.1429   1419.6054    703.0000     49.8284
            8          12      0.5000      0.1571   1421.1206    703.0000     49.9154
            8          13      0.5000      0.1714   1422.6268    703.0000     50.0021
            8          14      0.5000      0.1857   1424.1248    703.0000     50.0886
            8          15      0.5000      0.2000   1425.6151    703.0000     50.1750
            9           1      0.5714      0.0000   1403.8461    703.0000     48.9408
            9           2      0.5714      0.0143   1405.4555    703.0000     49.0301
            9           3      0.5714      0.0286   1407.0569    703.0000     49.1192
            9           4      0.5714      0.0429   1408.6496    703.0000     49.2081
            9           5      0.5714      0.0571   1410.2334    703.0000     49.2968
            9           6      0.5714      0.0714   1411.8079    703.0000     49.3854
            9           7      0.5714      0.0857   1413.3731    703.0000     49.4737
            9           8      0.5714      0.1000   1414.9288    703.0000     49.5618
            9           9      0.5714      0.1143   1416.4752    703.0000     49.6497
            9          10      0.5714      0.1286   1418.0124    703.0000     49.7373
            9          11      0.5714      0.1429   1419.5408    703.0000     49.8247
            9          12      0.5714      0.1571   1421.0608    703.0000     49.9119
            9          13      0.5714      0.1714   1422.5728    703.0000     49.9990
            9          14      0.5714      0.1857   1424.0774    703.0000     50.0859
            9          15      0.5714      0.2000   1425.5753    703.0000     50.1727
           10           1      0.6429      0.0000   1403.6878    703.0000     48.9321
           10           2      0.6429      0.0143   1405.2747    703.0000     49.0200
           10           3      0.6429      0.0286   1406.8566    703.0000     49.1080
           10           4      0.6429      0.0429   1408.4333    703.0000     49.1960
           10           5      0.6429      0.0571   1410.0047    703.0000     49.2840
           10           6      0.6429      0.0714   1411.5708    703.0000     49.3720
           10           7      0.6429      0.0857   1413.1315    703.0000     49.4601
           10           8      0.6429      0.1000   1414.6869    703.0000     49.5481
           10           9      0.6429      0.1143   1416.2372    703.0000     49.6361
           10          10      0.6429      0.1286   1417.7824    703.0000     49.7242
           10          11      0.6429      0.1429   1419.3228    703.0000     49.8122
           10          12      0.6429      0.1571   1420.8587    703.0000     49.9003
           10          13      0.6429      0.1714   1422.3901    703.0000     49.9885
           10          14      0.6429      0.1857   1423.9174    703.0000     50.0766
           10          15      0.6429      0.2000   1425.4407    703.0000     50.1649
           11           1      0.7143      0.0000   1403.3624    703.0000     48.9141
           11           2      0.7143      0.0143   1404.9030    703.0000     48.9994
           11           3      0.7143      0.0286   1406.4446    703.0000     49.0851
           11           4      0.7143      0.0429   1407.9877    703.0000     49.1711
           11           5      0.7143      0.0571   1409.5328    703.0000     49.2575
           11           6      0.7143      0.0714   1411.0803    703.0000     49.3444
           11           7      0.7143      0.0857   1412.6307    703.0000     49.4318
           11           8      0.7143      0.1000   1414.1844    703.0000     49.5196
           11           9      0.7143      0.1143   1415.7416    703.0000     49.6079
           11          10      0.7143      0.1286   1417.3024    703.0000     49.6968
           11          11      0.7143      0.1429   1418.8670    703.0000     49.7861
           11          12      0.7143      0.1571   1420.4352    703.0000     49.8760
           11          13      0.7143      0.1714   1422.0067    703.0000     49.9664
           11          14      0.7143      0.1857   1423.5812    703.0000     50.0572
           11          15      0.7143      0.2000   1425.1579    703.0000     50.1485
           12           1      0.7857      0.0000   1402.7575    703.0000     48.8807
           12           2      0.7857      0.0143   1404.2113    703.0000     48.9611
           12           3      0.7857      0.0286   1405.6764    703.0000     49.0423
           12           4      0.7857      0.0429   1407.1545    703.0000     49.1246
           12           5      0.7857      0.0571   1408.6472    703.0000     49.2080
           12           6      0.7857      0.0714   1410.1562    703.0000     49.2925
           12           7      0.7857      0.0857   1411.6828    703.0000     49.3783
           12           8      0.7857      0.1000   1413.2283    703.0000     49.4655
           12           9      0.7857      0.1143   1414.7937    703.0000     49.5541
           12          10      0.7857      0.1286   1416.3797    703.0000     49.6442
           12          11      0.7857      0.1429   1417.9864    703.0000     49.7358
           12          12      0.7857      0.1571   1419.6136    703.0000     49.8289
           12          13      0.7857      0.1714   1421.2603    703.0000     49.9234
           12          14      0.7857      0.1857   1422.9250    703.0000     50.0193
           12          15      0.7857      0.2000   1424.6054    703.0000     50.1164
           13           1      0.8571      0.0000   1401.6798    703.0000     48.8213
           13           2      0.8571      0.0143   1402.9775    703.0000     48.8928
           13           3      0.8571      0.0286   1404.3010    703.0000     48.9660
           13           4      0.8571      0.0429   1405.6542    703.0000     49.0411
           13           5      0.8571      0.0571   1407.0409    703.0000     49.1183
           13           6      0.8571      0.0714   1408.4652    703.0000     49.1978
           13           7      0.8571      0.0857   1409.9311    703.0000     49.2799
           13           8      0.8571      0.1000   1411.4426    703.0000     49.3648
           13           9      0.8571      0.1143   1413.0035    703.0000     49.4528
           13          10      0.8571      0.1286   1414.6170    703.0000     49.5441
           13          11      0.8571      0.1429   1416.2855    703.0000     49.6389
           13          12      0.8571      0.1571   1418.0104    703.0000     49.7372
           13          13      0.8571      0.1714   1419.7914    703.0000     49.8391
           13          14      0.8571      0.1857   1421.6260    703.0000     49.9444
           13          15      0.8571      0.2000   1423.5093    703.0000     50.0530
           14           1      0.9286      0.0000   1399.8546    703.0000     48.7210
           14           2      0.9286      0.0143   1400.8828    703.0000     48.7774
           14           3      0.9286      0.0286   1401.9501    703.0000     48.8361
           14           4      0.9286      0.0429   1403.0629    703.0000     48.8975
           14           5      0.9286      0.0571   1404.2286    703.0000     48.9620
           14           6      0.9286      0.0714   1405.4557    703.0000     49.0301
           14           7      0.9286      0.0857   1406.7539    703.0000     49.1023
           14           8      0.9286      0.1000   1408.1342    703.0000     49.1793
           14           9      0.9286      0.1143   1409.6089    703.0000     49.2618
           14          10      0.9286      0.1286   1411.1912    703.0000     49.3507
           14          11      0.9286      0.1429   1412.8952    703.0000     49.4467
           14          12      0.9286      0.1571   1414.7348    703.0000     49.5508
           14          13      0.9286      0.1714   1416.7223    703.0000     49.6637
           14          14      0.9286      0.1857   1418.8657    703.0000     49.7861
           14          15      0.9286      0.2000   1421.1646    703.0000     49.9179
           15           1      1.0000      0.0000   1397.0491    703.0000     48.5676
           15           2      1.0000      0.0143   1397.6510    703.0000     48.6005
           15           3      1.0000      0.0286   1398.2846    703.0000     48.6350
           15           4      1.0000      0.0429   1398.9562    703.0000     48.6718
           15           5      1.0000      0.0571   1399.6738    703.0000     48.7111
           15           6      1.0000      0.0714   1400.4479    703.0000     48.7535
           15           7      1.0000      0.0857   1401.2923    703.0000     48.7999
           15           8      1.0000      0.1000   1402.2253    703.0000     48.8513
           15           9      1.0000      0.1143   1403.2715    703.0000     48.9091
           15          10      1.0000      0.1286   1404.4644    703.0000     48.9751
           15          11      1.0000      0.1429   1405.8499    703.0000     49.0520
           15          12      1.0000      0.1571   1407.4919    703.0000     49.1434
           15          13      1.0000      0.1714   1409.4804    703.0000     49.2546
           15          14      1.0000      0.1857   1411.9432    703.0000     49.3930
           15          15      1.0000      0.2000   1415.0630    703.0000     49.5694
