 ====================================================================================
               Transient state solution for a 2D rectangular plate
                    for applications in steel reheating
                 e.g. Reheating furnaces for rolling processing
 ====================================================================================
 Author: Dickson Alves de Souza

 Based on lectures by professor Roberto Parreiras Tavares

 and book Numerical Heat Transfer and Fluid Flow
 by Suhas V. Patankar (1980)

 Federal University of Minas Gerais (UFMG)
 October 26th, 2017
 ====================================================================================
                              Input parameters:

 Lenght in X direction (meters):           1.0000
 Lenght in Y direction (meters):           0.2000
 Nodes in X direction:                         15
 Nodes in Y direction:                         15
 ====================================================================================

                       STAGE                1/  5
                       START Time:         0.0000
                       END Time:        1140.0000
                       Iterations:              998

 ====================================================================================
 Temperature of fluid at left face (T left):             1223.1500
 Temperature of fluid at right face (T right):           1223.1500
 Temperature of fluid at bottom face (T bottom):         1223.1500
 Temperature of fluid at top face (T top):               1223.1500
 ------------------------------------------------------------------------------------
 Heat transfer coefficient at left face (H left):          50.0000
 Heat transfer coefficient at right face (H right):        50.0000
 Heat transfer coefficient at bottom face (H bottom):       8.0000
 Heat transfer coefficient at top face (H top):           150.0000
 ====================================================================================


 ====================================================================================

                       STAGE                2/  5
                       START Time:      1140.0000
                       END Time:        3060.0000
                       Iterations:              998

 ====================================================================================
 Temperature of fluid at left face (T left):             1423.1500
 Temperature of fluid at right face (T right):           1423.1500
 Temperature of fluid at bottom face (T bottom):         1423.1500
 Temperature of fluid at top face (T top):               1423.1500
 ------------------------------------------------------------------------------------
 Heat transfer coefficient at left face (H left):          50.0000
 Heat transfer coefficient at right face (H right):        50.0000
 Heat transfer coefficient at bottom face (H bottom):       8.0000
 Heat transfer coefficient at top face (H top):           150.0000
 ====================================================================================


 ====================================================================================

                       STAGE                3/  5
                       START Time:      3060.0000
                       END Time:        4980.0000
                       Iterations:              998

 ====================================================================================
 Temperature of fluid at left face (T left):             1513.1500
 Temperature of fluid at right face (T right):           1513.1500
 Temperature of fluid at bottom face (T bottom):         1513.1500
 Temperature of fluid at top face (T top):               1513.1500
 ------------------------------------------------------------------------------------
 Heat transfer coefficient at left face (H left):          50.0000
 Heat transfer coefficient at right face (H right):        50.0000
 Heat transfer coefficient at bottom face (H bottom):       8.0000
 Heat transfer coefficient at top face (H top):           150.0000
 ====================================================================================


 ====================================================================================

                       STAGE                4/  5
                       START Time:      4980.0000
                       END Time:        8400.0000
                       Iterations:              998

 ====================================================================================
 Temperature of fluid at left face (T left):             1503.1500
 Temperature of fluid at right face (T right):           1503.1500
 Temperature of fluid at bottom face (T bottom):         1503.1500
 Temperature of fluid at top face (T top):               1523.1500
 ------------------------------------------------------------------------------------
 Heat transfer coefficient at left face (H left):          50.0000
 Heat transfer coefficient at right face (H right):        50.0000
 Heat transfer coefficient at bottom face (H bottom):       8.0000
 Heat transfer coefficient at top face (H top):           150.0000
 ====================================================================================


 ====================================================================================

                       STAGE                5/  5
                       START Time:      8400.0000
                       END Time:       18400.0000
                       Iterations:              998

 ====================================================================================
 Temperature of fluid at left face (T left):             1393.1500
 Temperature of fluid at right face (T right):           1393.1500
 Temperature of fluid at bottom face (T bottom):         1393.1500
 Temperature of fluid at top face (T top):               1433.1500
 ------------------------------------------------------------------------------------
 Heat transfer coefficient at left face (H left):          50.0000
 Heat transfer coefficient at right face (H right):        50.0000
 Heat transfer coefficient at bottom face (H bottom):       8.0000
 Heat transfer coefficient at top face (H top):           150.0000
 ====================================================================================


 SOLUTION of LINEAR SYSTEM: TDMA (tri-diagonal matrix algorithm)
      ADI approach employed in solution.
 Tolerance:       0.0010

 ====================================================================================
                    Calculation Results
 Current time:    11800.000000000000       seconds
 Maximum Temperature :    1430.1845760872188
 Minimum Temperature :    1398.7028823485966
 Average(algebraic, non-weigthed) Temperature :    1417.2739496036372
 ====================================================================================
            I           J        X(m)        Y(m)        T(K)  Cp(J/kg.K) K(W/sq-m.K)
 ====================================================================================
            1           1      0.0000      0.0000   1398.7029    703.0000     48.6579
            1           2      0.0000      0.0143   1399.5396    703.0000     48.7037
            1           3      0.0000      0.0286   1400.3747    703.0000     48.7495
            1           4      0.0000      0.0429   1401.2111    703.0000     48.7955
            1           5      0.0000      0.0571   1402.0539    703.0000     48.8419
            1           6      0.0000      0.0714   1402.9116    703.0000     48.8892
            1           7      0.0000      0.0857   1403.7966    703.0000     48.9381
            1           8      0.0000      0.1000   1404.7268    703.0000     48.9896
            1           9      0.0000      0.1143   1405.7267    703.0000     49.0451
            1          10      0.0000      0.1286   1406.8309    703.0000     49.1066
            1          11      0.0000      0.1429   1408.0868    703.0000     49.1766
            1          12      0.0000      0.1571   1409.5609    703.0000     49.2591
            1          13      0.0000      0.1714   1411.3463    703.0000     49.3594
            1          14      0.0000      0.1857   1413.5744    703.0000     49.4851
            1          15      0.0000      0.2000   1416.4327    703.0000     49.6472
            2           1      0.0714      0.0000   1402.7707    703.0000     48.8814
            2           2      0.0714      0.0143   1404.2125    703.0000     48.9611
            2           3      0.0714      0.0286   1405.6341    703.0000     49.0400
            2           4      0.0714      0.0429   1407.0361    703.0000     49.1180
            2           5      0.0714      0.0571   1408.4211    703.0000     49.1953
            2           6      0.0714      0.0714   1409.7941    703.0000     49.2722
            2           7      0.0714      0.0857   1411.1625    703.0000     49.3491
            2           8      0.0714      0.1000   1412.5365    703.0000     49.4265
            2           9      0.0714      0.1143   1413.9286    703.0000     49.5051
            2          10      0.0714      0.1286   1415.3541    703.0000     49.5859
            2          11      0.0714      0.1429   1416.8300    703.0000     49.6699
            2          12      0.0714      0.1571   1418.3745    703.0000     49.7580
            2          13      0.0714      0.1714   1420.0054    703.0000     49.8513
            2          14      0.0714      0.1857   1421.7374    703.0000     49.9509
            2          15      0.0714      0.2000   1423.5775    703.0000     50.0570
            3           1      0.1429      0.0000   1405.5917    703.0000     49.0376
            3           2      0.1429      0.0143   1407.4437    703.0000     49.1407
            3           3      0.1429      0.0286   1409.2417    703.0000     49.2412
            3           4      0.1429      0.0429   1410.9817    703.0000     49.3389
            3           5      0.1429      0.0571   1412.6613    703.0000     49.4335
            3           6      0.1429      0.0714   1414.2801    703.0000     49.5250
            3           7      0.1429      0.0857   1415.8393    703.0000     49.6135
            3           8      0.1429      0.1000   1417.3418    703.0000     49.6990
            3           9      0.1429      0.1143   1418.7920    703.0000     49.7819
            3          10      0.1429      0.1286   1420.1955    703.0000     49.8623
            3          11      0.1429      0.1429   1421.5590    703.0000     49.9406
            3          12      0.1429      0.1571   1422.8893    703.0000     50.0172
            3          13      0.1429      0.1714   1424.1935    703.0000     50.0926
            3          14      0.1429      0.1857   1425.4777    703.0000     50.1670
            3          15      0.1429      0.2000   1426.7469    703.0000     50.2407
            4           1      0.2143      0.0000   1407.3781    703.0000     49.1371
            4           2      0.2143      0.0143   1409.4864    703.0000     49.2549
            4           3      0.2143      0.0286   1411.5113    703.0000     49.3687
            4           4      0.2143      0.0429   1413.4456    703.0000     49.4778
            4           5      0.2143      0.0571   1415.2837    703.0000     49.5819
            4           6      0.2143      0.0714   1417.0219    703.0000     49.6808
            4           7      0.2143      0.0857   1418.6584    703.0000     49.7742
            4           8      0.2143      0.1000   1420.1933    703.0000     49.8621
            4           9      0.2143      0.1143   1421.6282    703.0000     49.9446
            4          10      0.2143      0.1286   1422.9668    703.0000     50.0217
            4          11      0.2143      0.1429   1424.2141    703.0000     50.0938
            4          12      0.2143      0.1571   1425.3762    703.0000     50.1611
            4          13      0.2143      0.1714   1426.4608    703.0000     50.2241
            4          14      0.2143      0.1857   1427.4763    703.0000     50.2832
            4          15      0.2143      0.2000   1428.4317    703.0000     50.3389
            5           1      0.2857      0.0000   1408.4395    703.0000     49.1963
            5           2      0.2857      0.0143   1410.6990    703.0000     49.3230
            5           3      0.2857      0.0286   1412.8554    703.0000     49.4445
            5           4      0.2857      0.0429   1414.8995    703.0000     49.5601
            5           5      0.2857      0.0571   1416.8238    703.0000     49.6695
            5           6      0.2857      0.0714   1418.6231    703.0000     49.7722
            5           7      0.2857      0.0857   1420.2943    703.0000     49.8679
            5           8      0.2857      0.1000   1421.8364    703.0000     49.9566
            5           9      0.2857      0.1143   1423.2506    703.0000     50.0381
            5          10      0.2857      0.1286   1424.5402    703.0000     50.1127
            5          11      0.2857      0.1429   1425.7103    703.0000     50.1805
            5          12      0.2857      0.1571   1426.7682    703.0000     50.2420
            5          13      0.2857      0.1714   1427.7227    703.0000     50.2976
            5          14      0.2857      0.1857   1428.5841    703.0000     50.3478
            5          15      0.2857      0.2000   1429.3644    703.0000     50.3934
            6           1      0.3571      0.0000   1409.0292    703.0000     49.2293
            6           2      0.3571      0.0143   1411.3724    703.0000     49.3609
            6           3      0.3571      0.0286   1413.6010    703.0000     49.4866
            6           4      0.3571      0.0429   1415.7046    703.0000     49.6058
            6           5      0.3571      0.0571   1417.6749    703.0000     49.7180
            6           6      0.3571      0.0714   1419.5058    703.0000     49.8227
            6           7      0.3571      0.0857   1421.1936    703.0000     49.9196
            6           8      0.3571      0.1000   1422.7370    703.0000     50.0085
            6           9      0.3571      0.1143   1424.1372    703.0000     50.0893
            6          10      0.3571      0.1286   1425.3973    703.0000     50.1623
            6          11      0.3571      0.1429   1426.5232    703.0000     50.2277
            6          12      0.3571      0.1571   1427.5225    703.0000     50.2859
            6          13      0.3571      0.1714   1428.4050    703.0000     50.3374
            6          14      0.3571      0.1857   1429.1824    703.0000     50.3828
            6          15      0.3571      0.2000   1429.8678    703.0000     50.4229
            7           1      0.4286      0.0000   1409.3188    703.0000     49.2456
            7           2      0.4286      0.0143   1411.7030    703.0000     49.3795
            7           3      0.4286      0.0286   1413.9669    703.0000     49.5073
            7           4      0.4286      0.0429   1416.0994    703.0000     49.6283
            7           5      0.4286      0.0571   1418.0919    703.0000     49.7418
            7           6      0.4286      0.0714   1419.9378    703.0000     49.8475
            7           7      0.4286      0.0857   1421.6332    703.0000     49.9449
            7           8      0.4286      0.1000   1423.1768    703.0000     50.0338
            7           9      0.4286      0.1143   1424.5695    703.0000     50.1144
            7          10      0.4286      0.1286   1425.8148    703.0000     50.1866
            7          11      0.4286      0.1429   1426.9187    703.0000     50.2507
            7          12      0.4286      0.1571   1427.8891    703.0000     50.3073
            7          13      0.4286      0.1714   1428.7364    703.0000     50.3567
            7          14      0.4286      0.1857   1429.4728    703.0000     50.3998
            7          15      0.4286      0.2000   1430.1122    703.0000     50.4372
            8           1      0.5000      0.0000   1409.4050    703.0000     49.2504
            8           2      0.5000      0.0143   1411.8013    703.0000     49.3850
            8           3      0.5000      0.0286   1414.0757    703.0000     49.5135
            8           4      0.5000      0.0429   1416.2169    703.0000     49.6350
            8           5      0.5000      0.0571   1418.2159    703.0000     49.7489
            8           6      0.5000      0.0714   1420.0662    703.0000     49.8548
            8           7      0.5000      0.0857   1421.7638    703.0000     49.9524
            8           8      0.5000      0.1000   1423.3074    703.0000     50.0414
            8           9      0.5000      0.1143   1424.6978    703.0000     50.1218
            8          10      0.5000      0.1286   1425.9387    703.0000     50.1938
            8          11      0.5000      0.1429   1427.0360    703.0000     50.2576
            8          12      0.5000      0.1571   1427.9979    703.0000     50.3136
            8          13      0.5000      0.1714   1428.8347    703.0000     50.3624
            8          14      0.5000      0.1857   1429.5589    703.0000     50.4048
            8          15      0.5000      0.2000   1430.1846    703.0000     50.4414
            9           1      0.5714      0.0000   1409.3188    703.0000     49.2456
            9           2      0.5714      0.0143   1411.7030    703.0000     49.3795
            9           3      0.5714      0.0286   1413.9670    703.0000     49.5073
            9           4      0.5714      0.0429   1416.0995    703.0000     49.6283
            9           5      0.5714      0.0571   1418.0920    703.0000     49.7418
            9           6      0.5714      0.0714   1419.9379    703.0000     49.8475
            9           7      0.5714      0.0857   1421.6333    703.0000     49.9449
            9           8      0.5714      0.1000   1423.1769    703.0000     50.0338
            9           9      0.5714      0.1143   1424.5696    703.0000     50.1144
            9          10      0.5714      0.1286   1425.8149    703.0000     50.1866
            9          11      0.5714      0.1429   1426.9188    703.0000     50.2507
            9          12      0.5714      0.1571   1427.8892    703.0000     50.3073
            9          13      0.5714      0.1714   1428.7365    703.0000     50.3567
            9          14      0.5714      0.1857   1429.4729    703.0000     50.3998
            9          15      0.5714      0.2000   1430.1122    703.0000     50.4372
           10           1      0.6429      0.0000   1409.0294    703.0000     49.2293
           10           2      0.6429      0.0143   1411.3725    703.0000     49.3609
           10           3      0.6429      0.0286   1413.6012    703.0000     49.4866
           10           4      0.6429      0.0429   1415.7048    703.0000     49.6059
           10           5      0.6429      0.0571   1417.6751    703.0000     49.7180
           10           6      0.6429      0.0714   1419.5060    703.0000     49.8227
           10           7      0.6429      0.0857   1421.1938    703.0000     49.9196
           10           8      0.6429      0.1000   1422.7373    703.0000     50.0085
           10           9      0.6429      0.1143   1424.1374    703.0000     50.0893
           10          10      0.6429      0.1286   1425.3976    703.0000     50.1624
           10          11      0.6429      0.1429   1426.5234    703.0000     50.2277
           10          12      0.6429      0.1571   1427.5227    703.0000     50.2859
           10          13      0.6429      0.1714   1428.4052    703.0000     50.3374
           10          14      0.6429      0.1857   1429.1825    703.0000     50.3828
           10          15      0.6429      0.2000   1429.8679    703.0000     50.4229
           11           1      0.7143      0.0000   1408.4398    703.0000     49.1964
           11           2      0.7143      0.0143   1410.6993    703.0000     49.3230
           11           3      0.7143      0.0286   1412.8558    703.0000     49.4445
           11           4      0.7143      0.0429   1414.8999    703.0000     49.5602
           11           5      0.7143      0.0571   1416.8242    703.0000     49.6695
           11           6      0.7143      0.0714   1418.6235    703.0000     49.7722
           11           7      0.7143      0.0857   1420.2947    703.0000     49.8679
           11           8      0.7143      0.1000   1421.8368    703.0000     49.9566
           11           9      0.7143      0.1143   1423.2510    703.0000     50.0381
           11          10      0.7143      0.1286   1424.5406    703.0000     50.1127
           11          11      0.7143      0.1429   1425.7107    703.0000     50.1805
           11          12      0.7143      0.1571   1426.7686    703.0000     50.2420
           11          13      0.7143      0.1714   1427.7230    703.0000     50.2976
           11          14      0.7143      0.1857   1428.5844    703.0000     50.3478
           11          15      0.7143      0.2000   1429.3646    703.0000     50.3934
           12           1      0.7857      0.0000   1407.3787    703.0000     49.1371
           12           2      0.7857      0.0143   1409.4870    703.0000     49.2550
           12           3      0.7857      0.0286   1411.5121    703.0000     49.3687
           12           4      0.7857      0.0429   1413.4464    703.0000     49.4779
           12           5      0.7857      0.0571   1415.2846    703.0000     49.5820
           12           6      0.7857      0.0714   1417.0228    703.0000     49.6808
           12           7      0.7857      0.0857   1418.6593    703.0000     49.7743
           12           8      0.7857      0.1000   1420.1941    703.0000     49.8622
           12           9      0.7857      0.1143   1421.6291    703.0000     49.9446
           12          10      0.7857      0.1286   1422.9676    703.0000     50.0218
           12          11      0.7857      0.1429   1424.2148    703.0000     50.0938
           12          12      0.7857      0.1571   1425.3769    703.0000     50.1612
           12          13      0.7857      0.1714   1426.4615    703.0000     50.2241
           12          14      0.7857      0.1857   1427.4769    703.0000     50.2832
           12          15      0.7857      0.2000   1428.4322    703.0000     50.3389
           13           1      0.8571      0.0000   1405.5927    703.0000     49.0377
           13           2      0.8571      0.0143   1407.4448    703.0000     49.1408
           13           3      0.8571      0.0286   1409.2430    703.0000     49.2413
           13           4      0.8571      0.0429   1410.9830    703.0000     49.3390
           13           5      0.8571      0.0571   1412.6628    703.0000     49.4336
           13           6      0.8571      0.0714   1414.2816    703.0000     49.5251
           13           7      0.8571      0.0857   1415.8408    703.0000     49.6136
           13           8      0.8571      0.1000   1417.3433    703.0000     49.6991
           13           9      0.8571      0.1143   1418.7935    703.0000     49.7819
           13          10      0.8571      0.1286   1420.1969    703.0000     49.8623
           13          11      0.8571      0.1429   1421.5603    703.0000     49.9407
           13          12      0.8571      0.1571   1422.8906    703.0000     50.0173
           13          13      0.8571      0.1714   1424.1946    703.0000     50.0927
           13          14      0.8571      0.1857   1425.4787    703.0000     50.1671
           13          15      0.8571      0.2000   1426.7477    703.0000     50.2408
           14           1      0.9286      0.0000   1402.7722    703.0000     48.8815
           14           2      0.9286      0.0143   1404.2143    703.0000     48.9612
           14           3      0.9286      0.0286   1405.6361    703.0000     49.0401
           14           4      0.9286      0.0429   1407.0383    703.0000     49.1181
           14           5      0.9286      0.0571   1408.4234    703.0000     49.1954
           14           6      0.9286      0.0714   1409.7965    703.0000     49.2723
           14           7      0.9286      0.0857   1411.1649    703.0000     49.3492
           14           8      0.9286      0.1000   1412.5389    703.0000     49.4266
           14           9      0.9286      0.1143   1413.9310    703.0000     49.5053
           14          10      0.9286      0.1286   1415.3564    703.0000     49.5861
           14          11      0.9286      0.1429   1416.8322    703.0000     49.6700
           14          12      0.9286      0.1571   1418.3765    703.0000     49.7581
           14          13      0.9286      0.1714   1420.0073    703.0000     49.8515
           14          14      0.9286      0.1857   1421.7390    703.0000     49.9509
           14          15      0.9286      0.2000   1423.5788    703.0000     50.0571
           15           1      1.0000      0.0000   1398.7037    703.0000     48.6579
           15           2      1.0000      0.0143   1399.5405    703.0000     48.7038
           15           3      1.0000      0.0286   1400.3758    703.0000     48.7496
           15           4      1.0000      0.0429   1401.2122    703.0000     48.7955
           15           5      1.0000      0.0571   1402.0551    703.0000     48.8419
           15           6      1.0000      0.0714   1402.9128    703.0000     48.8892
           15           7      1.0000      0.0857   1403.7979    703.0000     48.9382
           15           8      1.0000      0.1000   1404.7280    703.0000     48.9897
           15           9      1.0000      0.1143   1405.7280    703.0000     49.0452
           15          10      1.0000      0.1286   1406.8320    703.0000     49.1066
           15          11      1.0000      0.1429   1408.0879    703.0000     49.1767
           15          12      1.0000      0.1571   1409.5619    703.0000     49.2592
           15          13      1.0000      0.1714   1411.3472    703.0000     49.3595
           15          14      1.0000      0.1857   1413.5753    703.0000     49.4851
           15          15      1.0000      0.2000   1416.4334    703.0000     49.6473
