 ====================================================================================
               Transient state solution for a 2D rectangular plate
                    for applications in steel reheating
                 e.g. Reheating furnaces for rolling processing
 ====================================================================================
 Author: Dickson Alves de Souza

 Based on lectures by professor Roberto Parreiras Tavares

 and book Numerical Heat Transfer and Fluid Flow
 by Suhas V. Patankar (1980)

 Federal University of Minas Gerais (UFMG)
 October 26th, 2017
 ====================================================================================
                              Input parameters:

 Lenght in X direction (meters):           1.0000
 Lenght in Y direction (meters):           0.2000
 Nodes in X direction:                         15
 Nodes in Y direction:                         15
 ====================================================================================

                       STAGE                1/  5
                       START Time:         0.0000
                       END Time:        1140.0000
                       Iterations:             1149

 ====================================================================================
 Temperature of fluid at left face (T left):             1223.1500
 Temperature of fluid at right face (T right):           1223.1500
 Temperature of fluid at bottom face (T bottom):         1223.1500
 Temperature of fluid at top face (T top):               1223.1500
 ------------------------------------------------------------------------------------
 Heat transfer coefficient at left face (H left):          50.0000
 Heat transfer coefficient at right face (H right):        50.0000
 Heat transfer coefficient at bottom face (H bottom):       8.0000
 Heat transfer coefficient at top face (H top):           150.0000
 ====================================================================================


 ====================================================================================

                       STAGE                2/  5
                       START Time:      1140.0000
                       END Time:        3060.0000
                       Iterations:             1149

 ====================================================================================
 Temperature of fluid at left face (T left):             1423.1500
 Temperature of fluid at right face (T right):           1423.1500
 Temperature of fluid at bottom face (T bottom):         1423.1500
 Temperature of fluid at top face (T top):               1423.1500
 ------------------------------------------------------------------------------------
 Heat transfer coefficient at left face (H left):          50.0000
 Heat transfer coefficient at right face (H right):        50.0000
 Heat transfer coefficient at bottom face (H bottom):       8.0000
 Heat transfer coefficient at top face (H top):           150.0000
 ====================================================================================


 ====================================================================================

                       STAGE                3/  5
                       START Time:      3060.0000
                       END Time:        4980.0000
                       Iterations:             1149

 ====================================================================================
 Temperature of fluid at left face (T left):             1513.1500
 Temperature of fluid at right face (T right):           1513.1500
 Temperature of fluid at bottom face (T bottom):         1513.1500
 Temperature of fluid at top face (T top):               1513.1500
 ------------------------------------------------------------------------------------
 Heat transfer coefficient at left face (H left):          50.0000
 Heat transfer coefficient at right face (H right):        50.0000
 Heat transfer coefficient at bottom face (H bottom):       8.0000
 Heat transfer coefficient at top face (H top):           150.0000
 ====================================================================================


 ====================================================================================

                       STAGE                4/  5
                       START Time:      4980.0000
                       END Time:        8400.0000
                       Iterations:             1149

 ====================================================================================
 Temperature of fluid at left face (T left):             1503.1500
 Temperature of fluid at right face (T right):           1503.1500
 Temperature of fluid at bottom face (T bottom):         1503.1500
 Temperature of fluid at top face (T top):               1523.1500
 ------------------------------------------------------------------------------------
 Heat transfer coefficient at left face (H left):          50.0000
 Heat transfer coefficient at right face (H right):        50.0000
 Heat transfer coefficient at bottom face (H bottom):       8.0000
 Heat transfer coefficient at top face (H top):           150.0000
 ====================================================================================


 ====================================================================================

                       STAGE                5/  5
                       START Time:      8400.0000
                       END Time:       18400.0000
                       Iterations:             1149

 ====================================================================================
 Temperature of fluid at left face (T left):             1393.1500
 Temperature of fluid at right face (T right):           1393.1500
 Temperature of fluid at bottom face (T bottom):         1393.1500
 Temperature of fluid at top face (T top):               1433.1500
 ------------------------------------------------------------------------------------
 Heat transfer coefficient at left face (H left):          50.0000
 Heat transfer coefficient at right face (H right):        50.0000
 Heat transfer coefficient at bottom face (H bottom):       8.0000
 Heat transfer coefficient at top face (H top):           150.0000
 ====================================================================================


 SOLUTION of LINEAR SYSTEM: TDMA (tri-diagonal matrix algorithm)
      ADI approach employed in solution.
 Tolerance:       0.0010

 ====================================================================================
                    Calculation Results
 Current time:    14800.000000000000       seconds
 Maximum Temperature :    1425.7549458220924
 Minimum Temperature :    1397.0917877344043
 Average(algebraic, non-weigthed) Temperature :    1412.0250407278538
 ====================================================================================
            I           J        X(m)        Y(m)        T(K)  Cp(J/kg.K) K(W/sq-m.K)
 ====================================================================================
            1           1      0.0000      0.0000   1397.0918    703.0000     48.5700
            1           2      0.0000      0.0143   1397.6997    703.0000     48.6031
            1           3      0.0000      0.0286   1398.3385    703.0000     48.6380
            1           4      0.0000      0.0429   1399.0144    703.0000     48.6749
            1           5      0.0000      0.0571   1399.7352    703.0000     48.7144
            1           6      0.0000      0.0714   1400.5114    703.0000     48.7570
            1           7      0.0000      0.0857   1401.3569    703.0000     48.8035
            1           8      0.0000      0.1000   1402.2898    703.0000     48.8549
            1           9      0.0000      0.1143   1403.3349    703.0000     48.9126
            1          10      0.0000      0.1286   1404.5254    703.0000     48.9785
            1          11      0.0000      0.1429   1405.9076    703.0000     49.0552
            1          12      0.0000      0.1571   1407.5452    703.0000     49.1464
            1          13      0.0000      0.1714   1409.5285    703.0000     49.2573
            1          14      0.0000      0.1857   1411.9852    703.0000     49.3954
            1          15      0.0000      0.2000   1415.0983    703.0000     49.5714
            2           1      0.0714      0.0000   1399.9305    703.0000     48.7251
            2           2      0.0714      0.0143   1400.9695    703.0000     48.7822
            2           3      0.0714      0.0286   1402.0461    703.0000     48.8414
            2           4      0.0714      0.0429   1403.1664    703.0000     48.9033
            2           5      0.0714      0.0571   1404.3378    703.0000     48.9681
            2           6      0.0714      0.0714   1405.5687    703.0000     49.0363
            2           7      0.0714      0.0857   1406.8688    703.0000     49.1087
            2           8      0.0714      0.1000   1408.2489    703.0000     49.1857
            2           9      0.0714      0.1143   1409.7214    703.0000     49.2681
            2          10      0.0714      0.1286   1411.2996    703.0000     49.3568
            2          11      0.0714      0.1429   1412.9977    703.0000     49.4525
            2          12      0.0714      0.1571   1414.8296    703.0000     49.5562
            2          13      0.0714      0.1714   1416.8078    703.0000     49.6686
            2          14      0.0714      0.1857   1418.9405    703.0000     49.7903
            2          15      0.0714      0.2000   1421.2274    703.0000     49.9215
            3           1      0.1429      0.0000   1401.7853    703.0000     48.8271
            3           2      0.1429      0.0143   1403.0979    703.0000     48.8995
            3           3      0.1429      0.0286   1404.4343    703.0000     48.9734
            3           4      0.1429      0.0429   1405.7979    703.0000     49.0491
            3           5      0.1429      0.0571   1407.1926    703.0000     49.1267
            3           6      0.1429      0.0714   1408.6221    703.0000     49.2066
            3           7      0.1429      0.0857   1410.0905    703.0000     49.2888
            3           8      0.1429      0.1000   1411.6018    703.0000     49.3738
            3           9      0.1429      0.1143   1413.1597    703.0000     49.4617
            3          10      0.1429      0.1286   1414.7675    703.0000     49.5527
            3          11      0.1429      0.1429   1416.4278    703.0000     49.6470
            3          12      0.1429      0.1571   1418.1420    703.0000     49.7447
            3          13      0.1429      0.1714   1419.9100    703.0000     49.8459
            3          14      0.1429      0.1857   1421.7298    703.0000     49.9504
            3          15      0.1429      0.2000   1423.5966    703.0000     50.0581
            4           1      0.2143      0.0000   1402.8869    703.0000     48.8878
            4           2      0.2143      0.0143   1404.3590    703.0000     48.9692
            4           3      0.2143      0.0286   1405.8399    703.0000     49.0514
            4           4      0.2143      0.0429   1407.3307    703.0000     49.1344
            4           5      0.2143      0.0571   1408.8332    703.0000     49.2184
            4           6      0.2143      0.0714   1410.3485    703.0000     49.3033
            4           7      0.2143      0.0857   1411.8782    703.0000     49.3894
            4           8      0.2143      0.1000   1413.4234    703.0000     49.4766
            4           9      0.2143      0.1143   1414.9851    703.0000     49.5650
            4          10      0.2143      0.1286   1416.5641    703.0000     49.6547
            4          11      0.2143      0.1429   1418.1607    703.0000     49.7458
            4          12      0.2143      0.1571   1419.7748    703.0000     49.8381
            4          13      0.2143      0.1714   1421.4058    703.0000     49.9318
            4          14      0.2143      0.1857   1423.0523    703.0000     50.0266
            4          15      0.2143      0.2000   1424.7124    703.0000     50.1226
            5           1      0.2857      0.0000   1403.5097    703.0000     48.9222
            5           2      0.2857      0.0143   1405.0712    703.0000     49.0087
            5           3      0.2857      0.0286   1406.6306    703.0000     49.0954
            5           4      0.2857      0.0429   1408.1883    703.0000     49.1823
            5           5      0.2857      0.0571   1409.7444    703.0000     49.2694
            5           6      0.2857      0.0714   1411.2993    703.0000     49.3568
            5           7      0.2857      0.0857   1412.8532    703.0000     49.4443
            5           8      0.2857      0.1000   1414.4065    703.0000     49.5322
            5           9      0.2857      0.1143   1415.9595    703.0000     49.6203
            5          10      0.2857      0.1286   1417.5124    703.0000     49.7088
            5          11      0.2857      0.1429   1419.0655    703.0000     49.7975
            5          12      0.2857      0.1571   1420.6188    703.0000     49.8865
            5          13      0.2857      0.1714   1422.1724    703.0000     49.9759
            5          14      0.2857      0.1857   1423.7261    703.0000     50.0656
            5          15      0.2857      0.2000   1425.2797    703.0000     50.1555
            6           1      0.3571      0.0000   1403.8474    703.0000     48.9409
            6           2      0.3571      0.0143   1405.4569    703.0000     49.0301
            6           3      0.3571      0.0286   1407.0582    703.0000     49.1192
            6           4      0.3571      0.0429   1408.6506    703.0000     49.2082
            6           5      0.3571      0.0571   1410.2340    703.0000     49.2969
            6           6      0.3571      0.0714   1411.8080    703.0000     49.3854
            6           7      0.3571      0.0857   1413.3724    703.0000     49.4737
            6           8      0.3571      0.1000   1414.9275    703.0000     49.5617
            6           9      0.3571      0.1143   1416.4732    703.0000     49.6496
            6          10      0.3571      0.1286   1418.0099    703.0000     49.7372
            6          11      0.3571      0.1429   1419.5379    703.0000     49.8245
            6          12      0.3571      0.1571   1421.0576    703.0000     49.9118
            6          13      0.3571      0.1714   1422.5696    703.0000     49.9988
            6          14      0.3571      0.1857   1424.0744    703.0000     50.0857
            6          15      0.3571      0.2000   1425.5727    703.0000     50.1725
            7           1      0.4286      0.0000   1404.0127    703.0000     48.9501
            7           2      0.4286      0.0143   1405.6458    703.0000     49.0406
            7           3      0.4286      0.0286   1407.2673    703.0000     49.1309
            7           4      0.4286      0.0429   1408.8766    703.0000     49.2208
            7           5      0.4286      0.0571   1410.4728    703.0000     49.3103
            7           6      0.4286      0.0714   1412.0556    703.0000     49.3993
            7           7      0.4286      0.0857   1413.6247    703.0000     49.4879
            7           8      0.4286      0.1000   1415.1801    703.0000     49.5761
            7           9      0.4286      0.1143   1416.7217    703.0000     49.6637
            7          10      0.4286      0.1286   1418.2500    703.0000     49.7509
            7          11      0.4286      0.1429   1419.7654    703.0000     49.8376
            7          12      0.4286      0.1571   1421.2686    703.0000     49.9239
            7          13      0.4286      0.1714   1422.7603    703.0000     50.0098
            7          14      0.4286      0.1857   1424.2415    703.0000     50.0954
            7          15      0.4286      0.2000   1425.7132    703.0000     50.1807
            8           1      0.5000      0.0000   1404.0622    703.0000     48.9528
            8           2      0.5000      0.0143   1405.7023    703.0000     49.0438
            8           3      0.5000      0.0286   1407.3299    703.0000     49.1344
            8           4      0.5000      0.0429   1408.9441    703.0000     49.2246
            8           5      0.5000      0.0571   1410.5442    703.0000     49.3143
            8           6      0.5000      0.0714   1412.1296    703.0000     49.4035
            8           7      0.5000      0.0857   1413.7000    703.0000     49.4922
            8           8      0.5000      0.1000   1415.2554    703.0000     49.5803
            8           9      0.5000      0.1143   1416.7958    703.0000     49.6679
            8          10      0.5000      0.1286   1418.3215    703.0000     49.7550
            8          11      0.5000      0.1429   1419.8331    703.0000     49.8415
            8          12      0.5000      0.1571   1421.3313    703.0000     49.9275
            8          13      0.5000      0.1714   1422.8169    703.0000     50.0131
            8          14      0.5000      0.1857   1424.2911    703.0000     50.0982
            8          15      0.5000      0.2000   1425.7549    703.0000     50.1831
            9           1      0.5714      0.0000   1404.0128    703.0000     48.9501
            9           2      0.5714      0.0143   1405.6458    703.0000     49.0406
            9           3      0.5714      0.0286   1407.2674    703.0000     49.1309
            9           4      0.5714      0.0429   1408.8766    703.0000     49.2208
            9           5      0.5714      0.0571   1410.4729    703.0000     49.3103
            9           6      0.5714      0.0714   1412.0557    703.0000     49.3994
            9           7      0.5714      0.0857   1413.6248    703.0000     49.4879
            9           8      0.5714      0.1000   1415.1801    703.0000     49.5761
            9           9      0.5714      0.1143   1416.7218    703.0000     49.6637
            9          10      0.5714      0.1286   1418.2501    703.0000     49.7509
            9          11      0.5714      0.1429   1419.7655    703.0000     49.8376
            9          12      0.5714      0.1571   1421.2686    703.0000     49.9239
            9          13      0.5714      0.1714   1422.7603    703.0000     50.0098
            9          14      0.5714      0.1857   1424.2415    703.0000     50.0954
            9          15      0.5714      0.2000   1425.7133    703.0000     50.1807
           10           1      0.6429      0.0000   1403.8475    703.0000     48.9409
           10           2      0.6429      0.0143   1405.4570    703.0000     49.0301
           10           3      0.6429      0.0286   1407.0583    703.0000     49.1192
           10           4      0.6429      0.0429   1408.6508    703.0000     49.2082
           10           5      0.6429      0.0571   1410.2341    703.0000     49.2969
           10           6      0.6429      0.0714   1411.8081    703.0000     49.3854
           10           7      0.6429      0.0857   1413.3726    703.0000     49.4737
           10           8      0.6429      0.1000   1414.9277    703.0000     49.5617
           10           9      0.6429      0.1143   1416.4734    703.0000     49.6496
           10          10      0.6429      0.1286   1418.0100    703.0000     49.7372
           10          11      0.6429      0.1429   1419.5380    703.0000     49.8246
           10          12      0.6429      0.1571   1421.0577    703.0000     49.9118
           10          13      0.6429      0.1714   1422.5697    703.0000     49.9988
           10          14      0.6429      0.1857   1424.0745    703.0000     50.0857
           10          15      0.6429      0.2000   1425.5728    703.0000     50.1725
           11           1      0.7143      0.0000   1403.5100    703.0000     48.9222
           11           2      0.7143      0.0143   1405.0714    703.0000     49.0087
           11           3      0.7143      0.0286   1406.6309    703.0000     49.0954
           11           4      0.7143      0.0429   1408.1886    703.0000     49.1823
           11           5      0.7143      0.0571   1409.7447    703.0000     49.2694
           11           6      0.7143      0.0714   1411.2996    703.0000     49.3568
           11           7      0.7143      0.0857   1412.8535    703.0000     49.4444
           11           8      0.7143      0.1000   1414.4068    703.0000     49.5322
           11           9      0.7143      0.1143   1415.9598    703.0000     49.6204
           11          10      0.7143      0.1286   1417.5127    703.0000     49.7088
           11          11      0.7143      0.1429   1419.0658    703.0000     49.7975
           11          12      0.7143      0.1571   1420.6191    703.0000     49.8866
           11          13      0.7143      0.1714   1422.1727    703.0000     49.9759
           11          14      0.7143      0.1857   1423.7264    703.0000     50.0656
           11          15      0.7143      0.2000   1425.2799    703.0000     50.1555
           12           1      0.7857      0.0000   1402.8872    703.0000     48.8878
           12           2      0.7857      0.0143   1404.3595    703.0000     48.9693
           12           3      0.7857      0.0286   1405.8403    703.0000     49.0514
           12           4      0.7857      0.0429   1407.3313    703.0000     49.1345
           12           5      0.7857      0.0571   1408.8337    703.0000     49.2184
           12           6      0.7857      0.0714   1410.3491    703.0000     49.3033
           12           7      0.7857      0.0857   1411.8788    703.0000     49.3894
           12           8      0.7857      0.1000   1413.4240    703.0000     49.4766
           12           9      0.7857      0.1143   1414.9857    703.0000     49.5650
           12          10      0.7857      0.1286   1416.5647    703.0000     49.6548
           12          11      0.7857      0.1429   1418.1613    703.0000     49.7458
           12          12      0.7857      0.1571   1419.7753    703.0000     49.8382
           12          13      0.7857      0.1714   1421.4062    703.0000     49.9318
           12          14      0.7857      0.1857   1423.0527    703.0000     50.0267
           12          15      0.7857      0.2000   1424.7127    703.0000     50.1227
           13           1      0.8571      0.0000   1401.7860    703.0000     48.8271
           13           2      0.8571      0.0143   1403.0988    703.0000     48.8995
           13           3      0.8571      0.0286   1404.4352    703.0000     48.9735
           13           4      0.8571      0.0429   1405.7989    703.0000     49.0491
           13           5      0.8571      0.0571   1407.1936    703.0000     49.1268
           13           6      0.8571      0.0714   1408.6232    703.0000     49.2066
           13           7      0.8571      0.0857   1410.0916    703.0000     49.2889
           13           8      0.8571      0.1000   1411.6029    703.0000     49.3738
           13           9      0.8571      0.1143   1413.1608    703.0000     49.4617
           13          10      0.8571      0.1286   1414.7685    703.0000     49.5527
           13          11      0.8571      0.1429   1416.4287    703.0000     49.6470
           13          12      0.8571      0.1571   1418.1429    703.0000     49.7448
           13          13      0.8571      0.1714   1419.9109    703.0000     49.8459
           13          14      0.8571      0.1857   1421.7305    703.0000     49.9505
           13          15      0.8571      0.2000   1423.5972    703.0000     50.0581
           14           1      0.9286      0.0000   1399.9318    703.0000     48.7252
           14           2      0.9286      0.0143   1400.9710    703.0000     48.7823
           14           3      0.9286      0.0286   1402.0477    703.0000     48.8415
           14           4      0.9286      0.0429   1403.1682    703.0000     48.9034
           14           5      0.9286      0.0571   1404.3397    703.0000     48.9682
           14           6      0.9286      0.0714   1405.5706    703.0000     49.0365
           14           7      0.9286      0.0857   1406.8707    703.0000     49.1088
           14           8      0.9286      0.1000   1408.2508    703.0000     49.1858
           14           9      0.9286      0.1143   1409.7233    703.0000     49.2682
           14          10      0.9286      0.1286   1411.3014    703.0000     49.3569
           14          11      0.9286      0.1429   1412.9994    703.0000     49.4526
           14          12      0.9286      0.1571   1414.8312    703.0000     49.5563
           14          13      0.9286      0.1714   1416.8092    703.0000     49.6687
           14          14      0.9286      0.1857   1418.9417    703.0000     49.7904
           14          15      0.9286      0.2000   1421.2285    703.0000     49.9216
           15           1      1.0000      0.0000   1397.0924    703.0000     48.5700
           15           2      1.0000      0.0143   1397.7004    703.0000     48.6031
           15           3      1.0000      0.0286   1398.3393    703.0000     48.6380
           15           4      1.0000      0.0429   1399.0152    703.0000     48.6750
           15           5      1.0000      0.0571   1399.7361    703.0000     48.7145
           15           6      1.0000      0.0714   1400.5123    703.0000     48.7571
           15           7      1.0000      0.0857   1401.3578    703.0000     48.8035
           15           8      1.0000      0.1000   1402.2908    703.0000     48.8549
           15           9      1.0000      0.1143   1403.3358    703.0000     48.9126
           15          10      1.0000      0.1286   1404.5263    703.0000     48.9785
           15          11      1.0000      0.1429   1405.9084    703.0000     49.0552
           15          12      1.0000      0.1571   1407.5460    703.0000     49.1464
           15          13      1.0000      0.1714   1409.5292    703.0000     49.2573
           15          14      1.0000      0.1857   1411.9859    703.0000     49.3954
           15          15      1.0000      0.2000   1415.0989    703.0000     49.5715
