 ====================================================================================
               Transient state solution for a 2D rectangular plate
                    for applications in steel reheating
                 e.g. Reheating furnaces for rolling processing
 ====================================================================================
 Author: Dickson Alves de Souza

 Based on lectures by professor Roberto Parreiras Tavares

 and book Numerical Heat Transfer and Fluid Flow
 by Suhas V. Patankar (1980)

 Federal University of Minas Gerais (UFMG)
 October 26th, 2017
 ====================================================================================
                              Input parameters:

 Lenght in X direction (meters):           1.0000
 Lenght in Y direction (meters):           0.2000
 Nodes in X direction:                         15
 Nodes in Y direction:                         15
 ====================================================================================

                       STAGE                1/  5
                       START Time:         0.0000
                       END Time:        1140.0000
                       Iterations:             1031

 ====================================================================================
 Temperature of fluid at left face (T left):             1223.1500
 Temperature of fluid at right face (T right):           1223.1500
 Temperature of fluid at bottom face (T bottom):         1223.1500
 Temperature of fluid at top face (T top):               1223.1500
 ------------------------------------------------------------------------------------
 Heat transfer coefficient at left face (H left):          50.0000
 Heat transfer coefficient at right face (H right):        50.0000
 Heat transfer coefficient at bottom face (H bottom):       8.0000
 Heat transfer coefficient at top face (H top):           150.0000
 ====================================================================================


 ====================================================================================

                       STAGE                2/  5
                       START Time:      1140.0000
                       END Time:        3060.0000
                       Iterations:             1031

 ====================================================================================
 Temperature of fluid at left face (T left):             1423.1500
 Temperature of fluid at right face (T right):           1423.1500
 Temperature of fluid at bottom face (T bottom):         1423.1500
 Temperature of fluid at top face (T top):               1423.1500
 ------------------------------------------------------------------------------------
 Heat transfer coefficient at left face (H left):          50.0000
 Heat transfer coefficient at right face (H right):        50.0000
 Heat transfer coefficient at bottom face (H bottom):       8.0000
 Heat transfer coefficient at top face (H top):           150.0000
 ====================================================================================


 ====================================================================================

                       STAGE                3/  5
                       START Time:      3060.0000
                       END Time:        4980.0000
                       Iterations:             1031

 ====================================================================================
 Temperature of fluid at left face (T left):             1513.1500
 Temperature of fluid at right face (T right):           1513.1500
 Temperature of fluid at bottom face (T bottom):         1513.1500
 Temperature of fluid at top face (T top):               1513.1500
 ------------------------------------------------------------------------------------
 Heat transfer coefficient at left face (H left):          50.0000
 Heat transfer coefficient at right face (H right):        50.0000
 Heat transfer coefficient at bottom face (H bottom):       8.0000
 Heat transfer coefficient at top face (H top):           150.0000
 ====================================================================================


 ====================================================================================

                       STAGE                4/  5
                       START Time:      4980.0000
                       END Time:        8400.0000
                       Iterations:             1031

 ====================================================================================
 Temperature of fluid at left face (T left):             1503.1500
 Temperature of fluid at right face (T right):           1503.1500
 Temperature of fluid at bottom face (T bottom):         1503.1500
 Temperature of fluid at top face (T top):               1523.1500
 ------------------------------------------------------------------------------------
 Heat transfer coefficient at left face (H left):          50.0000
 Heat transfer coefficient at right face (H right):        50.0000
 Heat transfer coefficient at bottom face (H bottom):       8.0000
 Heat transfer coefficient at top face (H top):           150.0000
 ====================================================================================


 ====================================================================================

                       STAGE                5/  5
                       START Time:      8400.0000
                       END Time:       18400.0000
                       Iterations:             1031

 ====================================================================================
 Temperature of fluid at left face (T left):             1393.1500
 Temperature of fluid at right face (T right):           1393.1500
 Temperature of fluid at bottom face (T bottom):         1393.1500
 Temperature of fluid at top face (T top):               1433.1500
 ------------------------------------------------------------------------------------
 Heat transfer coefficient at left face (H left):          50.0000
 Heat transfer coefficient at right face (H right):        50.0000
 Heat transfer coefficient at bottom face (H bottom):       8.0000
 Heat transfer coefficient at top face (H top):           150.0000
 ====================================================================================


 SOLUTION of LINEAR SYSTEM: TDMA (tri-diagonal matrix algorithm)
      ADI approach employed in solution.
 Tolerance:       0.0010

 ====================================================================================
                    Calculation Results
 Current time:    12400.000000000000       seconds
 Maximum Temperature :    1428.4173295865724
 Minimum Temperature :    1398.0129864105206
 Average(algebraic, non-weigthed) Temperature :    1415.1206108404058
 ====================================================================================
            I           J        X(m)        Y(m)        T(K)  Cp(J/kg.K) K(W/sq-m.K)
 ====================================================================================
            1           1      0.0000      0.0000   1398.0130    703.0000     48.6202
            1           2      0.0000      0.0143   1398.7517    703.0000     48.6606
            1           3      0.0000      0.0286   1399.5028    703.0000     48.7017
            1           4      0.0000      0.0429   1400.2705    703.0000     48.7438
            1           5      0.0000      0.0571   1401.0611    703.0000     48.7872
            1           6      0.0000      0.0714   1401.8839    703.0000     48.8325
            1           7      0.0000      0.0857   1402.7520    703.0000     48.8804
            1           8      0.0000      0.1000   1403.6833    703.0000     48.9318
            1           9      0.0000      0.1143   1404.7025    703.0000     48.9883
            1          10      0.0000      0.1286   1405.8436    703.0000     49.0516
            1          11      0.0000      0.1429   1407.1536    703.0000     49.1245
            1          12      0.0000      0.1571   1408.6976    703.0000     49.2108
            1          13      0.0000      0.1714   1410.5677    703.0000     49.3156
            1          14      0.0000      0.1857   1412.8937    703.0000     49.4466
            1          15      0.0000      0.2000   1415.8611    703.0000     49.6147
            2           1      0.0714      0.0000   1401.5599    703.0000     48.8147
            2           2      0.0714      0.0143   1402.8301    703.0000     48.8847
            2           3      0.0714      0.0286   1404.1047    703.0000     48.9552
            2           4      0.0714      0.0429   1405.3867    703.0000     49.0262
            2           5      0.0714      0.0571   1406.6807    703.0000     49.0982
            2           6      0.0714      0.0714   1407.9932    703.0000     49.1714
            2           7      0.0714      0.0857   1409.3325    703.0000     49.2463
            2           8      0.0714      0.1000   1410.7090    703.0000     49.3236
            2           9      0.0714      0.1143   1412.1353    703.0000     49.4038
            2          10      0.0714      0.1286   1413.6258    703.0000     49.4880
            2          11      0.0714      0.1429   1415.1962    703.0000     49.5770
            2          12      0.0714      0.1571   1416.8631    703.0000     49.6718
            2          13      0.0714      0.1714   1418.6419    703.0000     49.7733
            2          14      0.0714      0.1857   1420.5446    703.0000     49.8823
            2          15      0.0714      0.2000   1422.5752    703.0000     49.9991
            3           1      0.1429      0.0000   1403.9891    703.0000     48.9488
            3           2      0.1429      0.0143   1405.6142    703.0000     49.0389
            3           3      0.1429      0.0286   1407.2180    703.0000     49.1281
            3           4      0.1429      0.0429   1408.7997    703.0000     49.2165
            3           5      0.1429      0.0571   1410.3595    703.0000     49.3039
            3           6      0.1429      0.0714   1411.8987    703.0000     49.3905
            3           7      0.1429      0.0857   1413.4197    703.0000     49.4763
            3           8      0.1429      0.1000   1414.9258    703.0000     49.5616
            3           9      0.1429      0.1143   1416.4211    703.0000     49.6466
            3          10      0.1429      0.1286   1417.9104    703.0000     49.7315
            3          11      0.1429      0.1429   1419.3985    703.0000     49.8166
            3          12      0.1429      0.1571   1420.8902    703.0000     49.9021
            3          13      0.1429      0.1714   1422.3895    703.0000     49.9884
            3          14      0.1429      0.1857   1423.8990    703.0000     50.0756
            3          15      0.1429      0.2000   1425.4197    703.0000     50.1636
            4           1      0.2143      0.0000   1405.5164    703.0000     49.0334
            4           2      0.2143      0.0143   1407.3611    703.0000     49.1361
            4           3      0.2143      0.0286   1409.1607    703.0000     49.2367
            4           4      0.2143      0.0429   1410.9114    703.0000     49.3349
            4           5      0.2143      0.0571   1412.6106    703.0000     49.4306
            4           6      0.2143      0.0714   1414.2565    703.0000     49.5237
            4           7      0.2143      0.0857   1415.8487    703.0000     49.6140
            4           8      0.2143      0.1000   1417.3877    703.0000     49.7017
            4           9      0.2143      0.1143   1418.8750    703.0000     49.7866
            4          10      0.2143      0.1286   1420.3129    703.0000     49.8690
            4          11      0.2143      0.1429   1421.7046    703.0000     49.9490
            4          12      0.2143      0.1571   1423.0537    703.0000     50.0267
            4          13      0.2143      0.1714   1424.3644    703.0000     50.1025
            4          14      0.2143      0.1857   1425.6412    703.0000     50.1765
            4          15      0.2143      0.2000   1426.8887    703.0000     50.2490
            5           1      0.2857      0.0000   1406.4273    703.0000     49.0841
            5           2      0.2857      0.0143   1408.4019    703.0000     49.1942
            5           3      0.2857      0.0286   1410.3149    703.0000     49.3014
            5           4      0.2857      0.0429   1412.1607    703.0000     49.4053
            5           5      0.2857      0.0571   1413.9349    703.0000     49.5055
            5           6      0.2857      0.0714   1415.6346    703.0000     49.6019
            5           7      0.2857      0.0857   1417.2579    703.0000     49.6942
            5           8      0.2857      0.1000   1418.8044    703.0000     49.7826
            5           9      0.2857      0.1143   1420.2749    703.0000     49.8668
            5          10      0.2857      0.1286   1421.6716    703.0000     49.9471
            5          11      0.2857      0.1429   1422.9976    703.0000     50.0235
            5          12      0.2857      0.1571   1424.2573    703.0000     50.0963
            5          13      0.2857      0.1714   1425.4559    703.0000     50.1657
            5          14      0.2857      0.1857   1426.5997    703.0000     50.2322
            5          15      0.2857      0.2000   1427.6955    703.0000     50.2960
            6           1      0.3571      0.0000   1406.9409    703.0000     49.1127
            6           2      0.3571      0.0143   1408.9885    703.0000     49.2271
            6           3      0.3571      0.0286   1410.9646    703.0000     49.3379
            6           4      0.3571      0.0429   1412.8625    703.0000     49.4449
            6           5      0.3571      0.0571   1414.6770    703.0000     49.5475
            6           6      0.3571      0.0714   1416.4045    703.0000     49.6456
            6           7      0.3571      0.0857   1418.0426    703.0000     49.7390
            6           8      0.3571      0.1000   1419.5905    703.0000     49.8276
            6           9      0.3571      0.1143   1421.0490    703.0000     49.9113
            6          10      0.3571      0.1286   1422.4201    703.0000     49.9902
            6          11      0.3571      0.1429   1423.7075    703.0000     50.0645
            6          12      0.3571      0.1571   1424.9161    703.0000     50.1344
            6          13      0.3571      0.1714   1426.0518    703.0000     50.2003
            6          14      0.3571      0.1857   1427.1221    703.0000     50.2626
            6          15      0.3571      0.2000   1428.1351    703.0000     50.3216
            7           1      0.4286      0.0000   1407.1981    703.0000     49.1270
            7           2      0.4286      0.0143   1409.2823    703.0000     49.2435
            7           3      0.4286      0.0286   1411.2897    703.0000     49.3562
            7           4      0.4286      0.0429   1413.2134    703.0000     49.4647
            7           5      0.4286      0.0571   1415.0477    703.0000     49.5685
            7           6      0.4286      0.0714   1416.7885    703.0000     49.6675
            7           7      0.4286      0.0857   1418.4334    703.0000     49.7614
            7           8      0.4286      0.1000   1419.9815    703.0000     49.8500
            7           9      0.4286      0.1143   1421.4334    703.0000     49.9334
            7          10      0.4286      0.1286   1422.7914    703.0000     50.0116
            7          11      0.4286      0.1429   1424.0592    703.0000     50.0848
            7          12      0.4286      0.1571   1425.2420    703.0000     50.1533
            7          13      0.4286      0.1714   1426.3464    703.0000     50.2174
            7          14      0.4286      0.1857   1427.3801    703.0000     50.2776
            7          15      0.4286      0.2000   1428.3521    703.0000     50.3343
            8           1      0.5000      0.0000   1407.2758    703.0000     49.1314
            8           2      0.5000      0.0143   1409.3709    703.0000     49.2485
            8           3      0.5000      0.0286   1411.3878    703.0000     49.3617
            8           4      0.5000      0.0429   1413.3192    703.0000     49.4707
            8           5      0.5000      0.0571   1415.1594    703.0000     49.5749
            8           6      0.5000      0.0714   1416.9043    703.0000     49.6741
            8           7      0.5000      0.0857   1418.5512    703.0000     49.7681
            8           8      0.5000      0.1000   1420.0993    703.0000     49.8567
            8           9      0.5000      0.1143   1421.5491    703.0000     49.9400
            8          10      0.5000      0.1286   1422.9031    703.0000     50.0180
            8          11      0.5000      0.1429   1424.1649    703.0000     50.0909
            8          12      0.5000      0.1571   1425.3400    703.0000     50.1590
            8          13      0.5000      0.1714   1426.4349    703.0000     50.2226
            8          14      0.5000      0.1857   1427.4577    703.0000     50.2821
            8          15      0.5000      0.2000   1428.4173    703.0000     50.3381
            9           1      0.5714      0.0000   1407.1982    703.0000     49.1270
            9           2      0.5714      0.0143   1409.2823    703.0000     49.2435
            9           3      0.5714      0.0286   1411.2898    703.0000     49.3562
            9           4      0.5714      0.0429   1413.2134    703.0000     49.4647
            9           5      0.5714      0.0571   1415.0477    703.0000     49.5686
            9           6      0.5714      0.0714   1416.7886    703.0000     49.6675
            9           7      0.5714      0.0857   1418.4335    703.0000     49.7614
            9           8      0.5714      0.1000   1419.9816    703.0000     49.8500
            9           9      0.5714      0.1143   1421.4335    703.0000     49.9334
            9          10      0.5714      0.1286   1422.7914    703.0000     50.0116
            9          11      0.5714      0.1429   1424.0592    703.0000     50.0848
            9          12      0.5714      0.1571   1425.2421    703.0000     50.1533
            9          13      0.5714      0.1714   1426.3465    703.0000     50.2174
            9          14      0.5714      0.1857   1427.3802    703.0000     50.2776
            9          15      0.5714      0.2000   1428.3522    703.0000     50.3343
           10           1      0.6429      0.0000   1406.9410    703.0000     49.1127
           10           2      0.6429      0.0143   1408.9887    703.0000     49.2271
           10           3      0.6429      0.0286   1410.9648    703.0000     49.3379
           10           4      0.6429      0.0429   1412.8627    703.0000     49.4449
           10           5      0.6429      0.0571   1414.6772    703.0000     49.5475
           10           6      0.6429      0.0714   1416.4047    703.0000     49.6457
           10           7      0.6429      0.0857   1418.0428    703.0000     49.7390
           10           8      0.6429      0.1000   1419.5907    703.0000     49.8276
           10           9      0.6429      0.1143   1421.0492    703.0000     49.9113
           10          10      0.6429      0.1286   1422.4203    703.0000     49.9902
           10          11      0.6429      0.1429   1423.7077    703.0000     50.0645
           10          12      0.6429      0.1571   1424.9163    703.0000     50.1344
           10          13      0.6429      0.1714   1426.0520    703.0000     50.2003
           10          14      0.6429      0.1857   1427.1222    703.0000     50.2626
           10          15      0.6429      0.2000   1428.1352    703.0000     50.3216
           11           1      0.7143      0.0000   1406.4276    703.0000     49.0841
           11           2      0.7143      0.0143   1408.4023    703.0000     49.1943
           11           3      0.7143      0.0286   1410.3153    703.0000     49.3014
           11           4      0.7143      0.0429   1412.1612    703.0000     49.4053
           11           5      0.7143      0.0571   1413.9354    703.0000     49.5055
           11           6      0.7143      0.0714   1415.6351    703.0000     49.6019
           11           7      0.7143      0.0857   1417.2584    703.0000     49.6943
           11           8      0.7143      0.1000   1418.8049    703.0000     49.7826
           11           9      0.7143      0.1143   1420.2754    703.0000     49.8668
           11          10      0.7143      0.1286   1421.6721    703.0000     49.9471
           11          11      0.7143      0.1429   1422.9980    703.0000     50.0235
           11          12      0.7143      0.1571   1424.2577    703.0000     50.0963
           11          13      0.7143      0.1714   1425.4563    703.0000     50.1658
           11          14      0.7143      0.1857   1426.6000    703.0000     50.2322
           11          15      0.7143      0.2000   1427.6958    703.0000     50.2960
           12           1      0.7857      0.0000   1405.5171    703.0000     49.0335
           12           2      0.7857      0.0143   1407.3619    703.0000     49.1362
           12           3      0.7857      0.0286   1409.1616    703.0000     49.2368
           12           4      0.7857      0.0429   1410.9124    703.0000     49.3350
           12           5      0.7857      0.0571   1412.6116    703.0000     49.4307
           12           6      0.7857      0.0714   1414.2576    703.0000     49.5238
           12           7      0.7857      0.0857   1415.8498    703.0000     49.6141
           12           8      0.7857      0.1000   1417.3888    703.0000     49.7017
           12           9      0.7857      0.1143   1418.8760    703.0000     49.7867
           12          10      0.7857      0.1286   1420.3139    703.0000     49.8690
           12          11      0.7857      0.1429   1421.7055    703.0000     49.9490
           12          12      0.7857      0.1571   1423.0546    703.0000     50.0268
           12          13      0.7857      0.1714   1424.3652    703.0000     50.1025
           12          14      0.7857      0.1857   1425.6419    703.0000     50.1765
           12          15      0.7857      0.2000   1426.8893    703.0000     50.2490
           13           1      0.8571      0.0000   1403.9905    703.0000     48.9488
           13           2      0.8571      0.0143   1405.6158    703.0000     49.0390
           13           3      0.8571      0.0286   1407.2197    703.0000     49.1282
           13           4      0.8571      0.0429   1408.8015    703.0000     49.2166
           13           5      0.8571      0.0571   1410.3614    703.0000     49.3040
           13           6      0.8571      0.0714   1411.9007    703.0000     49.3906
           13           7      0.8571      0.0857   1413.4217    703.0000     49.4765
           13           8      0.8571      0.1000   1414.9278    703.0000     49.5617
           13           9      0.8571      0.1143   1416.4231    703.0000     49.6467
           13          10      0.8571      0.1286   1417.9124    703.0000     49.7316
           13          11      0.8571      0.1429   1419.4004    703.0000     49.8167
           13          12      0.8571      0.1571   1420.8919    703.0000     49.9022
           13          13      0.8571      0.1714   1422.3910    703.0000     49.9885
           13          14      0.8571      0.1857   1423.9004    703.0000     50.0756
           13          15      0.8571      0.2000   1425.4208    703.0000     50.1637
           14           1      0.9286      0.0000   1401.5609    703.0000     48.8147
           14           2      0.9286      0.0143   1402.8311    703.0000     48.8847
           14           3      0.9286      0.0286   1404.1059    703.0000     48.9552
           14           4      0.9286      0.0429   1405.3880    703.0000     49.0263
           14           5      0.9286      0.0571   1406.6821    703.0000     49.0983
           14           6      0.9286      0.0714   1407.9946    703.0000     49.1715
           14           7      0.9286      0.0857   1409.3339    703.0000     49.2464
           14           8      0.9286      0.1000   1410.7104    703.0000     49.3236
           14           9      0.9286      0.1143   1412.1367    703.0000     49.4039
           14          10      0.9286      0.1286   1413.6271    703.0000     49.4881
           14          11      0.9286      0.1429   1415.1975    703.0000     49.5771
           14          12      0.9286      0.1571   1416.8643    703.0000     49.6718
           14          13      0.9286      0.1714   1418.6430    703.0000     49.7733
           14          14      0.9286      0.1857   1420.5456    703.0000     49.8823
           14          15      0.9286      0.2000   1422.5759    703.0000     49.9992
           15           1      1.0000      0.0000   1398.0133    703.0000     48.6202
           15           2      1.0000      0.0143   1398.7521    703.0000     48.6606
           15           3      1.0000      0.0286   1399.5032    703.0000     48.7017
           15           4      1.0000      0.0429   1400.2709    703.0000     48.7438
           15           5      1.0000      0.0571   1401.0615    703.0000     48.7872
           15           6      1.0000      0.0714   1401.8843    703.0000     48.8325
           15           7      1.0000      0.0857   1402.7524    703.0000     48.8804
           15           8      1.0000      0.1000   1403.6837    703.0000     48.9319
           15           9      1.0000      0.1143   1404.7029    703.0000     48.9883
           15          10      1.0000      0.1286   1405.8440    703.0000     49.0516
           15          11      1.0000      0.1429   1407.1539    703.0000     49.1246
           15          12      1.0000      0.1571   1408.6980    703.0000     49.2108
           15          13      1.0000      0.1714   1410.5680    703.0000     49.3156
           15          14      1.0000      0.1857   1412.8940    703.0000     49.4466
           15          15      1.0000      0.2000   1415.8613    703.0000     49.6148
