 ====================================================================================
               Transient state solution for a 2D rectangular plate
                    for applications in steel reheating
                 e.g. Reheating furnaces for rolling processing
 ====================================================================================
 Author: Dickson Alves de Souza

 Based on lectures by professor Roberto Parreiras Tavares

 and book Numerical Heat Transfer and Fluid Flow
 by Suhas V. Patankar (1980)

 Federal University of Minas Gerais (UFMG)
 October 26th, 2017
 ====================================================================================
                              Input parameters:

 Lenght in X direction (meters):           1.0000
 Lenght in Y direction (meters):           0.2000
 Nodes in X direction:                         15
 Nodes in Y direction:                         15
 ====================================================================================

                       STAGE                1/  5
                       START Time:         0.0000
                       END Time:        1140.0000
                       Iterations:             1188

 ====================================================================================
 Temperature of fluid at left face (T left):             1223.1500
 Temperature of fluid at right face (T right):           1223.1500
 Temperature of fluid at bottom face (T bottom):         1223.1500
 Temperature of fluid at top face (T top):               1223.1500
 ------------------------------------------------------------------------------------
 Heat transfer coefficient at left face (H left):          50.0000
 Heat transfer coefficient at right face (H right):        50.0000
 Heat transfer coefficient at bottom face (H bottom):       8.0000
 Heat transfer coefficient at top face (H top):           150.0000
 ====================================================================================


 ====================================================================================

                       STAGE                2/  5
                       START Time:      1140.0000
                       END Time:        3060.0000
                       Iterations:             1188

 ====================================================================================
 Temperature of fluid at left face (T left):             1423.1500
 Temperature of fluid at right face (T right):           1423.1500
 Temperature of fluid at bottom face (T bottom):         1423.1500
 Temperature of fluid at top face (T top):               1423.1500
 ------------------------------------------------------------------------------------
 Heat transfer coefficient at left face (H left):          50.0000
 Heat transfer coefficient at right face (H right):        50.0000
 Heat transfer coefficient at bottom face (H bottom):       8.0000
 Heat transfer coefficient at top face (H top):           150.0000
 ====================================================================================


 ====================================================================================

                       STAGE                3/  5
                       START Time:      3060.0000
                       END Time:        4980.0000
                       Iterations:             1188

 ====================================================================================
 Temperature of fluid at left face (T left):             1513.1500
 Temperature of fluid at right face (T right):           1513.1500
 Temperature of fluid at bottom face (T bottom):         1513.1500
 Temperature of fluid at top face (T top):               1513.1500
 ------------------------------------------------------------------------------------
 Heat transfer coefficient at left face (H left):          50.0000
 Heat transfer coefficient at right face (H right):        50.0000
 Heat transfer coefficient at bottom face (H bottom):       8.0000
 Heat transfer coefficient at top face (H top):           150.0000
 ====================================================================================


 ====================================================================================

                       STAGE                4/  5
                       START Time:      4980.0000
                       END Time:        8400.0000
                       Iterations:             1188

 ====================================================================================
 Temperature of fluid at left face (T left):             1503.1500
 Temperature of fluid at right face (T right):           1503.1500
 Temperature of fluid at bottom face (T bottom):         1503.1500
 Temperature of fluid at top face (T top):               1523.1500
 ------------------------------------------------------------------------------------
 Heat transfer coefficient at left face (H left):          50.0000
 Heat transfer coefficient at right face (H right):        50.0000
 Heat transfer coefficient at bottom face (H bottom):       8.0000
 Heat transfer coefficient at top face (H top):           150.0000
 ====================================================================================


 ====================================================================================

                       STAGE                5/  5
                       START Time:      8400.0000
                       END Time:       18400.0000
                       Iterations:             1188

 ====================================================================================
 Temperature of fluid at left face (T left):             1393.1500
 Temperature of fluid at right face (T right):           1393.1500
 Temperature of fluid at bottom face (T bottom):         1393.1500
 Temperature of fluid at top face (T top):               1433.1500
 ------------------------------------------------------------------------------------
 Heat transfer coefficient at left face (H left):          50.0000
 Heat transfer coefficient at right face (H right):        50.0000
 Heat transfer coefficient at bottom face (H bottom):       8.0000
 Heat transfer coefficient at top face (H top):           150.0000
 ====================================================================================


 SOLUTION of LINEAR SYSTEM: TDMA (tri-diagonal matrix algorithm)
      ADI approach employed in solution.
 Tolerance:       0.0010

 ====================================================================================
                    Calculation Results
 Current time:    15800.000000000000       seconds
 Maximum Temperature :    1425.4699959322645
 Minimum Temperature :    1397.0046829066987
 Average(algebraic, non-weigthed) Temperature :    1411.7089077445830
 ====================================================================================
            I           J        X(m)        Y(m)        T(K)  Cp(J/kg.K) K(W/sq-m.K)
 ====================================================================================
            1           1      0.0000      0.0000   1397.0047    703.0000     48.5652
            1           2      0.0000      0.0143   1397.6002    703.0000     48.5977
            1           3      0.0000      0.0286   1398.2284    703.0000     48.6320
            1           4      0.0000      0.0429   1398.8956    703.0000     48.6684
            1           5      0.0000      0.0571   1399.6098    703.0000     48.7076
            1           6      0.0000      0.0714   1400.3816    703.0000     48.7499
            1           7      0.0000      0.0857   1401.2249    703.0000     48.7962
            1           8      0.0000      0.1000   1402.1580    703.0000     48.8476
            1           9      0.0000      0.1143   1403.2055    703.0000     48.9054
            1          10      0.0000      0.1286   1404.4008    703.0000     48.9716
            1          11      0.0000      0.1429   1405.7897    703.0000     49.0486
            1          12      0.0000      0.1571   1407.4363    703.0000     49.1403
            1          13      0.0000      0.1714   1409.4303    703.0000     49.2518
            1          14      0.0000      0.1857   1411.8994    703.0000     49.3905
            1          15      0.0000      0.2000   1415.0263    703.0000     49.5673
            2           1      0.0714      0.0000   1399.7749    703.0000     48.7166
            2           2      0.0714      0.0143   1400.7918    703.0000     48.7724
            2           3      0.0714      0.0286   1401.8495    703.0000     48.8306
            2           4      0.0714      0.0429   1402.9544    703.0000     48.8915
            2           5      0.0714      0.0571   1404.1141    703.0000     48.9557
            2           6      0.0714      0.0714   1405.3372    703.0000     49.0235
            2           7      0.0714      0.0857   1406.6334    703.0000     49.0956
            2           8      0.0714      0.1000   1408.0139    703.0000     49.1726
            2           9      0.0714      0.1143   1409.4908    703.0000     49.2552
            2          10      0.0714      0.1286   1411.0774    703.0000     49.3443
            2          11      0.0714      0.1429   1412.7877    703.0000     49.4406
            2          12      0.0714      0.1571   1414.6354    703.0000     49.5452
            2          13      0.0714      0.1714   1416.6326    703.0000     49.6586
            2          14      0.0714      0.1857   1418.7873    703.0000     49.7816
            2          15      0.0714      0.2000   1421.0988    703.0000     49.9141
            3           1      0.1429      0.0000   1401.5705    703.0000     48.8152
            3           2      0.1429      0.0143   1402.8527    703.0000     48.8859
            3           3      0.1429      0.0286   1404.1630    703.0000     48.9584
            3           4      0.1429      0.0429   1405.5053    703.0000     49.0328
            3           5      0.1429      0.0571   1406.8838    703.0000     49.1095
            3           6      0.1429      0.0714   1408.3027    703.0000     49.1887
            3           7      0.1429      0.0857   1409.7660    703.0000     49.2706
            3           8      0.1429      0.1000   1411.2778    703.0000     49.3555
            3           9      0.1429      0.1143   1412.8418    703.0000     49.4437
            3          10      0.1429      0.1286   1414.4612    703.0000     49.5353
            3          11      0.1429      0.1429   1416.1382    703.0000     49.6305
            3          12      0.1429      0.1571   1417.8742    703.0000     49.7294
            3          13      0.1429      0.1714   1419.6685    703.0000     49.8320
            3          14      0.1429      0.1857   1421.5185    703.0000     49.9383
            3          15      0.1429      0.2000   1423.4190    703.0000     50.0478
            4           1      0.2143      0.0000   1402.6238    703.0000     48.8733
            4           2      0.2143      0.0143   1404.0588    703.0000     48.9526
            4           3      0.2143      0.0286   1405.5077    703.0000     49.0330
            4           4      0.2143      0.0429   1406.9725    703.0000     49.1145
            4           5      0.2143      0.0571   1408.4552    703.0000     49.1972
            4           6      0.2143      0.0714   1409.9575    703.0000     49.2814
            4           7      0.2143      0.0857   1411.4809    703.0000     49.3670
            4           8      0.2143      0.1000   1413.0268    703.0000     49.4541
            4           9      0.2143      0.1143   1414.5960    703.0000     49.5429
            4          10      0.2143      0.1286   1416.1891    703.0000     49.6334
            4          11      0.2143      0.1429   1417.8063    703.0000     49.7255
            4          12      0.2143      0.1571   1419.4470    703.0000     49.8193
            4          13      0.2143      0.1714   1421.1100    703.0000     49.9148
            4          14      0.2143      0.1857   1422.7935    703.0000     50.0117
            4          15      0.2143      0.2000   1424.4949    703.0000     50.1100
            5           1      0.2857      0.0000   1403.2101    703.0000     48.9057
            5           2      0.2857      0.0143   1404.7291    703.0000     48.9897
            5           3      0.2857      0.0286   1406.2522    703.0000     49.0743
            5           4      0.2857      0.0429   1407.7802    703.0000     49.1595
            5           5      0.2857      0.0571   1409.3139    703.0000     49.2453
            5           6      0.2857      0.0714   1410.8539    703.0000     49.3317
            5           7      0.2857      0.0857   1412.4007    703.0000     49.4188
            5           8      0.2857      0.1000   1413.9548    703.0000     49.5066
            5           9      0.2857      0.1143   1415.5163    703.0000     49.5951
            5          10      0.2857      0.1286   1417.0853    703.0000     49.6844
            5          11      0.2857      0.1429   1418.6618    703.0000     49.7744
            5          12      0.2857      0.1571   1420.2453    703.0000     49.8651
            5          13      0.2857      0.1714   1421.8354    703.0000     49.9565
            5          14      0.2857      0.1857   1423.4313    703.0000     50.0485
            5          15      0.2857      0.2000   1425.0319    703.0000     50.1412
            6           1      0.3571      0.0000   1403.5225    703.0000     48.9229
            6           2      0.3571      0.0143   1405.0860    703.0000     49.0095
            6           3      0.3571      0.0286   1406.6478    703.0000     49.0964
            6           4      0.3571      0.0429   1408.2082    703.0000     49.1834
            6           5      0.3571      0.0571   1409.7672    703.0000     49.2707
            6           6      0.3571      0.0714   1411.3251    703.0000     49.3582
            6           7      0.3571      0.0857   1412.8818    703.0000     49.4460
            6           8      0.3571      0.1000   1414.4376    703.0000     49.5340
            6           9      0.3571      0.1143   1415.9926    703.0000     49.6222
            6          10      0.3571      0.1286   1417.5467    703.0000     49.7107
            6          11      0.3571      0.1429   1419.1001    703.0000     49.7995
            6          12      0.3571      0.1571   1420.6526    703.0000     49.8885
            6          13      0.3571      0.1714   1422.2042    703.0000     49.9777
            6          14      0.3571      0.1857   1423.7547    703.0000     50.0672
            6          15      0.3571      0.2000   1425.3040    703.0000     50.1569
            7           1      0.4286      0.0000   1403.6731    703.0000     48.9313
            7           2      0.4286      0.0143   1405.2581    703.0000     49.0191
            7           3      0.4286      0.0286   1406.8384    703.0000     49.1070
            7           4      0.4286      0.0429   1408.4141    703.0000     49.1949
            7           5      0.4286      0.0571   1409.9849    703.0000     49.2829
            7           6      0.4286      0.0714   1411.5509    703.0000     49.3709
            7           7      0.4286      0.0857   1413.1119    703.0000     49.4590
            7           8      0.4286      0.1000   1414.6681    703.0000     49.5470
            7           9      0.4286      0.1143   1416.2194    703.0000     49.6351
            7          10      0.4286      0.1286   1417.7659    703.0000     49.7232
            7          11      0.4286      0.1429   1419.3078    703.0000     49.8114
            7          12      0.4286      0.1571   1420.8452    703.0000     49.8996
            7          13      0.4286      0.1714   1422.3783    703.0000     49.9878
            7          14      0.4286      0.1857   1423.9072    703.0000     50.0760
            7          15      0.4286      0.2000   1425.4323    703.0000     50.1644
            8           1      0.5000      0.0000   1403.7178    703.0000     48.9337
            8           2      0.5000      0.0143   1405.3091    703.0000     49.0219
            8           3      0.5000      0.0286   1406.8950    703.0000     49.1101
            8           4      0.5000      0.0429   1408.4751    703.0000     49.1983
            8           5      0.5000      0.0571   1410.0494    703.0000     49.2865
            8           6      0.5000      0.0714   1411.6177    703.0000     49.3747
            8           7      0.5000      0.0857   1413.1800    703.0000     49.4628
            8           8      0.5000      0.1000   1414.7361    703.0000     49.5509
            8           9      0.5000      0.1143   1416.2863    703.0000     49.6389
            8          10      0.5000      0.1286   1417.8305    703.0000     49.7269
            8          11      0.5000      0.1429   1419.3690    703.0000     49.8149
            8          12      0.5000      0.1571   1420.9019    703.0000     49.9028
            8          13      0.5000      0.1714   1422.4295    703.0000     49.9907
            8          14      0.5000      0.1857   1423.9521    703.0000     50.0786
            8          15      0.5000      0.2000   1425.4700    703.0000     50.1666
            9           1      0.5714      0.0000   1403.6732    703.0000     48.9313
            9           2      0.5714      0.0143   1405.2581    703.0000     49.0191
            9           3      0.5714      0.0286   1406.8385    703.0000     49.1070
            9           4      0.5714      0.0429   1408.4141    703.0000     49.1949
            9           5      0.5714      0.0571   1409.9850    703.0000     49.2829
            9           6      0.5714      0.0714   1411.5509    703.0000     49.3709
            9           7      0.5714      0.0857   1413.1120    703.0000     49.4590
            9           8      0.5714      0.1000   1414.6681    703.0000     49.5470
            9           9      0.5714      0.1143   1416.2194    703.0000     49.6351
            9          10      0.5714      0.1286   1417.7659    703.0000     49.7232
            9          11      0.5714      0.1429   1419.3078    703.0000     49.8114
            9          12      0.5714      0.1571   1420.8452    703.0000     49.8996
            9          13      0.5714      0.1714   1422.3783    703.0000     49.9878
            9          14      0.5714      0.1857   1423.9073    703.0000     50.0760
            9          15      0.5714      0.2000   1425.4323    703.0000     50.1644
           10           1      0.6429      0.0000   1403.5225    703.0000     48.9229
           10           2      0.6429      0.0143   1405.0860    703.0000     49.0095
           10           3      0.6429      0.0286   1406.6479    703.0000     49.0964
           10           4      0.6429      0.0429   1408.2083    703.0000     49.1834
           10           5      0.6429      0.0571   1409.7673    703.0000     49.2707
           10           6      0.6429      0.0714   1411.3252    703.0000     49.3582
           10           7      0.6429      0.0857   1412.8819    703.0000     49.4460
           10           8      0.6429      0.1000   1414.4377    703.0000     49.5340
           10           9      0.6429      0.1143   1415.9927    703.0000     49.6222
           10          10      0.6429      0.1286   1417.5468    703.0000     49.7107
           10          11      0.6429      0.1429   1419.1002    703.0000     49.7995
           10          12      0.6429      0.1571   1420.6526    703.0000     49.8885
           10          13      0.6429      0.1714   1422.2042    703.0000     49.9777
           10          14      0.6429      0.1857   1423.7547    703.0000     50.0672
           10          15      0.6429      0.2000   1425.3040    703.0000     50.1569
           11           1      0.7143      0.0000   1403.2103    703.0000     48.9057
           11           2      0.7143      0.0143   1404.7293    703.0000     48.9898
           11           3      0.7143      0.0286   1406.2524    703.0000     49.0744
           11           4      0.7143      0.0429   1407.7804    703.0000     49.1595
           11           5      0.7143      0.0571   1409.3141    703.0000     49.2453
           11           6      0.7143      0.0714   1410.8541    703.0000     49.3317
           11           7      0.7143      0.0857   1412.4009    703.0000     49.4188
           11           8      0.7143      0.1000   1413.9550    703.0000     49.5066
           11           9      0.7143      0.1143   1415.5165    703.0000     49.5952
           11          10      0.7143      0.1286   1417.0855    703.0000     49.6844
           11          11      0.7143      0.1429   1418.6620    703.0000     49.7744
           11          12      0.7143      0.1571   1420.2455    703.0000     49.8651
           11          13      0.7143      0.1714   1421.8356    703.0000     49.9565
           11          14      0.7143      0.1857   1423.4315    703.0000     50.0485
           11          15      0.7143      0.2000   1425.0320    703.0000     50.1412
           12           1      0.7857      0.0000   1402.6242    703.0000     48.8733
           12           2      0.7857      0.0143   1404.0591    703.0000     48.9526
           12           3      0.7857      0.0286   1405.5080    703.0000     49.0330
           12           4      0.7857      0.0429   1406.9729    703.0000     49.1145
           12           5      0.7857      0.0571   1408.4557    703.0000     49.1972
           12           6      0.7857      0.0714   1409.9580    703.0000     49.2814
           12           7      0.7857      0.0857   1411.4814    703.0000     49.3670
           12           8      0.7857      0.1000   1413.0272    703.0000     49.4542
           12           9      0.7857      0.1143   1414.5964    703.0000     49.5430
           12          10      0.7857      0.1286   1416.1896    703.0000     49.6334
           12          11      0.7857      0.1429   1417.8067    703.0000     49.7256
           12          12      0.7857      0.1571   1419.4474    703.0000     49.8194
           12          13      0.7857      0.1714   1421.1104    703.0000     49.9148
           12          14      0.7857      0.1857   1422.7938    703.0000     50.0117
           12          15      0.7857      0.2000   1424.4952    703.0000     50.1101
           13           1      0.8571      0.0000   1401.5711    703.0000     48.8153
           13           2      0.8571      0.0143   1402.8535    703.0000     48.8860
           13           3      0.8571      0.0286   1404.1638    703.0000     48.9584
           13           4      0.8571      0.0429   1405.5062    703.0000     49.0329
           13           5      0.8571      0.0571   1406.8848    703.0000     49.1096
           13           6      0.8571      0.0714   1408.3036    703.0000     49.1887
           13           7      0.8571      0.0857   1409.7670    703.0000     49.2707
           13           8      0.8571      0.1000   1411.2788    703.0000     49.3556
           13           9      0.8571      0.1143   1412.8427    703.0000     49.4438
           13          10      0.8571      0.1286   1414.4621    703.0000     49.5353
           13          11      0.8571      0.1429   1416.1391    703.0000     49.6305
           13          12      0.8571      0.1571   1417.8750    703.0000     49.7295
           13          13      0.8571      0.1714   1419.6692    703.0000     49.8321
           13          14      0.8571      0.1857   1421.5192    703.0000     49.9383
           13          15      0.8571      0.2000   1423.4196    703.0000     50.0479
           14           1      0.9286      0.0000   1399.7755    703.0000     48.7166
           14           2      0.9286      0.0143   1400.7926    703.0000     48.7725
           14           3      0.9286      0.0286   1401.8503    703.0000     48.8306
           14           4      0.9286      0.0429   1402.9552    703.0000     48.8916
           14           5      0.9286      0.0571   1404.1150    703.0000     48.9557
           14           6      0.9286      0.0714   1405.3381    703.0000     49.0235
           14           7      0.9286      0.0857   1406.6344    703.0000     49.0956
           14           8      0.9286      0.1000   1408.0149    703.0000     49.1726
           14           9      0.9286      0.1143   1409.4918    703.0000     49.2552
           14          10      0.9286      0.1286   1411.0783    703.0000     49.3443
           14          11      0.9286      0.1429   1412.7886    703.0000     49.4407
           14          12      0.9286      0.1571   1414.6362    703.0000     49.5452
           14          13      0.9286      0.1714   1416.6334    703.0000     49.6587
           14          14      0.9286      0.1857   1418.7879    703.0000     49.7816
           14          15      0.9286      0.2000   1421.0993    703.0000     49.9142
           15           1      1.0000      0.0000   1397.0049    703.0000     48.5652
           15           2      1.0000      0.0143   1397.6005    703.0000     48.5977
           15           3      1.0000      0.0286   1398.2287    703.0000     48.6320
           15           4      1.0000      0.0429   1398.8959    703.0000     48.6685
           15           5      1.0000      0.0571   1399.6101    703.0000     48.7076
           15           6      1.0000      0.0714   1400.3819    703.0000     48.7499
           15           7      1.0000      0.0857   1401.2252    703.0000     48.7962
           15           8      1.0000      0.1000   1402.1583    703.0000     48.8476
           15           9      1.0000      0.1143   1403.2058    703.0000     48.9054
           15          10      1.0000      0.1286   1404.4011    703.0000     48.9716
           15          11      1.0000      0.1429   1405.7900    703.0000     49.0486
           15          12      1.0000      0.1571   1407.4365    703.0000     49.1403
           15          13      1.0000      0.1714   1409.4305    703.0000     49.2518
           15          14      1.0000      0.1857   1411.8995    703.0000     49.3906
           15          15      1.0000      0.2000   1415.0264    703.0000     49.5673
