 ====================================================================================
               Transient state solution for a 2D rectangular plate
                    for applications in steel reheating
                 e.g. Reheating furnaces for rolling processing
 ====================================================================================
 Author: Dickson Alves de Souza

 Based on lectures by professor Roberto Parreiras Tavares

 and book Numerical Heat Transfer and Fluid Flow
 by Suhas V. Patankar (1980)

 Federal University of Minas Gerais (UFMG)
 October 26th, 2017
 ====================================================================================
                              Input parameters:

 Lenght in X direction (meters):           1.0000
 Lenght in Y direction (meters):           0.2000
 Nodes in X direction:                         15
 Nodes in Y direction:                         15
 ====================================================================================

                       STAGE                1/  5
                       START Time:         0.0000
                       END Time:        1140.0000
                       Iterations:              950

 ====================================================================================
 Temperature of fluid at left face (T left):             1223.1500
 Temperature of fluid at right face (T right):           1223.1500
 Temperature of fluid at bottom face (T bottom):         1223.1500
 Temperature of fluid at top face (T top):               1223.1500
 ------------------------------------------------------------------------------------
 Heat transfer coefficient at left face (H left):          50.0000
 Heat transfer coefficient at right face (H right):        50.0000
 Heat transfer coefficient at bottom face (H bottom):       8.0000
 Heat transfer coefficient at top face (H top):           150.0000
 ====================================================================================


 ====================================================================================

                       STAGE                2/  5
                       START Time:      1140.0000
                       END Time:        3060.0000
                       Iterations:              950

 ====================================================================================
 Temperature of fluid at left face (T left):             1423.1500
 Temperature of fluid at right face (T right):           1423.1500
 Temperature of fluid at bottom face (T bottom):         1423.1500
 Temperature of fluid at top face (T top):               1423.1500
 ------------------------------------------------------------------------------------
 Heat transfer coefficient at left face (H left):          50.0000
 Heat transfer coefficient at right face (H right):        50.0000
 Heat transfer coefficient at bottom face (H bottom):       8.0000
 Heat transfer coefficient at top face (H top):           150.0000
 ====================================================================================


 ====================================================================================

                       STAGE                3/  5
                       START Time:      3060.0000
                       END Time:        4980.0000
                       Iterations:              950

 ====================================================================================
 Temperature of fluid at left face (T left):             1513.1500
 Temperature of fluid at right face (T right):           1513.1500
 Temperature of fluid at bottom face (T bottom):         1513.1500
 Temperature of fluid at top face (T top):               1513.1500
 ------------------------------------------------------------------------------------
 Heat transfer coefficient at left face (H left):          50.0000
 Heat transfer coefficient at right face (H right):        50.0000
 Heat transfer coefficient at bottom face (H bottom):       8.0000
 Heat transfer coefficient at top face (H top):           150.0000
 ====================================================================================


 ====================================================================================

                       STAGE                4/  5
                       START Time:      4980.0000
                       END Time:        8400.0000
                       Iterations:              950

 ====================================================================================
 Temperature of fluid at left face (T left):             1503.1500
 Temperature of fluid at right face (T right):           1503.1500
 Temperature of fluid at bottom face (T bottom):         1503.1500
 Temperature of fluid at top face (T top):               1523.1500
 ------------------------------------------------------------------------------------
 Heat transfer coefficient at left face (H left):          50.0000
 Heat transfer coefficient at right face (H right):        50.0000
 Heat transfer coefficient at bottom face (H bottom):       8.0000
 Heat transfer coefficient at top face (H top):           150.0000
 ====================================================================================


 ====================================================================================

                       STAGE                5/  5
                       START Time:      8400.0000
                       END Time:       18400.0000
                       Iterations:              950

 ====================================================================================
 Temperature of fluid at left face (T left):             1393.1500
 Temperature of fluid at right face (T right):           1393.1500
 Temperature of fluid at bottom face (T bottom):         1393.1500
 Temperature of fluid at top face (T top):               1433.1500
 ------------------------------------------------------------------------------------
 Heat transfer coefficient at left face (H left):          50.0000
 Heat transfer coefficient at right face (H right):        50.0000
 Heat transfer coefficient at bottom face (H bottom):       8.0000
 Heat transfer coefficient at top face (H top):           150.0000
 ====================================================================================


 SOLUTION of LINEAR SYSTEM: TDMA (tri-diagonal matrix algorithm)
      ADI approach employed in solution.
 Tolerance:       0.0010

 ====================================================================================
                    Calculation Results
 Current time:    11000.000000000000       seconds
 Maximum Temperature :    1434.2234274059701
 Minimum Temperature :    1400.4239532246497
 Average(algebraic, non-weigthed) Temperature :    1422.2637175532629
 ====================================================================================
            I           J        X(m)        Y(m)        T(K)  Cp(J/kg.K) K(W/sq-m.K)
 ====================================================================================
            1           1      0.0000      0.0000   1400.4240    703.0000     48.7522
            1           2      0.0000      0.0143   1401.5049    703.0000     48.8116
            1           3      0.0000      0.0286   1402.5496    703.0000     48.8692
            1           4      0.0000      0.0429   1403.5572    703.0000     48.9249
            1           5      0.0000      0.0571   1404.5302    703.0000     48.9787
            1           6      0.0000      0.0714   1405.4748    703.0000     49.0311
            1           7      0.0000      0.0857   1406.4022    703.0000     49.0827
            1           8      0.0000      0.1000   1407.3296    703.0000     49.1344
            1           9      0.0000      0.1143   1408.2818    703.0000     49.1875
            1          10      0.0000      0.1286   1409.2941    703.0000     49.2442
            1          11      0.0000      0.1429   1410.4158    703.0000     49.3071
            1          12      0.0000      0.1571   1411.7157    703.0000     49.3802
            1          13      0.0000      0.1714   1413.2900    703.0000     49.4690
            1          14      0.0000      0.1857   1415.2742    703.0000     49.5814
            1          15      0.0000      0.2000   1417.8602    703.0000     49.7286
            2           1      0.0714      0.0000   1405.7607    703.0000     49.0470
            2           2      0.0714      0.0143   1407.6261    703.0000     49.1509
            2           3      0.0714      0.0286   1409.4104    703.0000     49.2507
            2           4      0.0714      0.0429   1411.1082    703.0000     49.3460
            2           5      0.0714      0.0571   1412.7174    703.0000     49.4367
            2           6      0.0714      0.0714   1414.2395    703.0000     49.5227
            2           7      0.0714      0.0857   1415.6800    703.0000     49.6044
            2           8      0.0714      0.1000   1417.0479    703.0000     49.6823
            2           9      0.0714      0.1143   1418.3564    703.0000     49.7569
            2          10      0.0714      0.1286   1419.6223    703.0000     49.8294
            2          11      0.0714      0.1429   1420.8657    703.0000     49.9007
            2          12      0.0714      0.1571   1422.1091    703.0000     49.9723
            2          13      0.0714      0.1714   1423.3756    703.0000     50.0453
            2          14      0.0714      0.1857   1424.6864    703.0000     50.1211
            2          15      0.0714      0.2000   1426.0563    703.0000     50.2006
            3           1      0.1429      0.0000   1409.4546    703.0000     49.2532
            3           2      0.1429      0.0143   1411.8533    703.0000     49.3879
            3           3      0.1429      0.0286   1414.1186    703.0000     49.5159
            3           4      0.1429      0.0429   1416.2392    703.0000     49.6362
            3           5      0.1429      0.0571   1418.2070    703.0000     49.7484
            3           6      0.1429      0.0714   1420.0173    703.0000     49.8520
            3           7      0.1429      0.0857   1421.6686    703.0000     49.9469
            3           8      0.1429      0.1000   1423.1630    703.0000     50.0330
            3           9      0.1429      0.1143   1424.5053    703.0000     50.1106
            3          10      0.1429      0.1286   1425.7036    703.0000     50.1801
            3          11      0.1429      0.1429   1426.7682    703.0000     50.2420
            3          12      0.1429      0.1571   1427.7113    703.0000     50.2969
            3          13      0.1429      0.1714   1428.5468    703.0000     50.3456
            3          14      0.1429      0.1857   1429.2890    703.0000     50.3890
            3          15      0.1429      0.2000   1429.9520    703.0000     50.4278
            4           1      0.2143      0.0000   1411.7442    703.0000     49.3818
            4           2      0.2143      0.0143   1414.4699    703.0000     49.5358
            4           3      0.2143      0.0286   1417.0223    703.0000     49.6808
            4           4      0.2143      0.0429   1419.3861    703.0000     49.8159
            4           5      0.2143      0.0571   1421.5491    703.0000     49.9400
            4           6      0.2143      0.0714   1423.5032    703.0000     50.0527
            4           7      0.2143      0.0857   1425.2436    703.0000     50.1534
            4           8      0.2143      0.1000   1426.7694    703.0000     50.2420
            4           9      0.2143      0.1143   1428.0831    703.0000     50.3186
            4          10      0.2143      0.1286   1429.1907    703.0000     50.3833
            4          11      0.2143      0.1429   1430.1014    703.0000     50.4365
            4          12      0.2143      0.1571   1430.8273    703.0000     50.4791
            4          13      0.2143      0.1714   1431.3835    703.0000     50.5117
            4          14      0.2143      0.1857   1431.7873    703.0000     50.5355
            4          15      0.2143      0.2000   1432.0581    703.0000     50.5514
            5           1      0.2857      0.0000   1413.0446    703.0000     49.4552
            5           2      0.2857      0.0143   1415.9550    703.0000     49.6201
            5           3      0.2857      0.0286   1418.6674    703.0000     49.7747
            5           4      0.2857      0.0429   1421.1641    703.0000     49.9179
            5           5      0.2857      0.0571   1423.4308    703.0000     50.0485
            5           6      0.2857      0.0714   1425.4577    703.0000     50.1658
            5           7      0.2857      0.0857   1427.2386    703.0000     50.2693
            5           8      0.2857      0.1000   1428.7714    703.0000     50.3588
            5           9      0.2857      0.1143   1430.0582    703.0000     50.4340
            5          10      0.2857      0.1286   1431.1048    703.0000     50.4954
            5          11      0.2857      0.1429   1431.9208    703.0000     50.5433
            5          12      0.2857      0.1571   1432.5194    703.0000     50.5785
            5          13      0.2857      0.1714   1432.9172    703.0000     50.6020
            5          14      0.2857      0.1857   1433.1340    703.0000     50.6147
            5          15      0.2857      0.2000   1433.1923    703.0000     50.6182
            6           1      0.3571      0.0000   1413.7227    703.0000     49.4935
            6           2      0.3571      0.0143   1416.7292    703.0000     49.6641
            6           3      0.3571      0.0286   1419.5243    703.0000     49.8238
            6           4      0.3571      0.0429   1422.0890    703.0000     49.9711
            6           5      0.3571      0.0571   1424.4082    703.0000     50.1050
            6           6      0.3571      0.0714   1426.4710    703.0000     50.2247
            6           7      0.3571      0.0857   1428.2708    703.0000     50.3295
            6           8      0.3571      0.1000   1429.8050    703.0000     50.4192
            6           9      0.3571      0.1143   1431.0756    703.0000     50.4937
            6          10      0.3571      0.1286   1432.0886    703.0000     50.5532
            6          11      0.3571      0.1429   1432.8539    703.0000     50.5982
            6          12      0.3571      0.1571   1433.3855    703.0000     50.6296
            6          13      0.3571      0.1714   1433.7010    703.0000     50.6482
            6          14      0.3571      0.1857   1433.8215    703.0000     50.6553
            6          15      0.3571      0.2000   1433.7712    703.0000     50.6523
            7           1      0.4286      0.0000   1414.0342    703.0000     49.5111
            7           2      0.4286      0.0143   1417.0848    703.0000     49.6844
            7           3      0.4286      0.0286   1419.9178    703.0000     49.8463
            7           4      0.4286      0.0429   1422.5135    703.0000     49.9956
            7           5      0.4286      0.0571   1424.8565    703.0000     50.1310
            7           6      0.4286      0.0714   1426.9354    703.0000     50.2517
            7           7      0.4286      0.0857   1428.7433    703.0000     50.3571
            7           8      0.4286      0.1000   1430.2778    703.0000     50.4469
            7           9      0.4286      0.1143   1431.5405    703.0000     50.5210
            7          10      0.4286      0.1286   1432.5377    703.0000     50.5796
            7          11      0.4286      0.1429   1433.2795    703.0000     50.6233
            7          12      0.4286      0.1571   1433.7803    703.0000     50.6529
            7          13      0.4286      0.1714   1434.0581    703.0000     50.6693
            7          14      0.4286      0.1857   1434.1346    703.0000     50.6738
            7          15      0.4286      0.2000   1434.0348    703.0000     50.6679
            8           1      0.5000      0.0000   1414.1229    703.0000     49.5161
            8           2      0.5000      0.0143   1417.1860    703.0000     49.6901
            8           3      0.5000      0.0286   1420.0297    703.0000     49.8527
            8           4      0.5000      0.0429   1422.6342    703.0000     50.0025
            8           5      0.5000      0.0571   1424.9839    703.0000     50.1384
            8           6      0.5000      0.0714   1427.0674    703.0000     50.2594
            8           7      0.5000      0.0857   1428.8776    703.0000     50.3650
            8           8      0.5000      0.1000   1430.4121    703.0000     50.4548
            8           9      0.5000      0.1143   1431.6726    703.0000     50.5287
            8          10      0.5000      0.1286   1432.6652    703.0000     50.5871
            8          11      0.5000      0.1429   1433.4003    703.0000     50.6304
            8          12      0.5000      0.1571   1433.8923    703.0000     50.6595
            8          13      0.5000      0.1714   1434.1594    703.0000     50.6752
            8          14      0.5000      0.1857   1434.2234    703.0000     50.6790
            8          15      0.5000      0.2000   1434.1095    703.0000     50.6723
            9           1      0.5714      0.0000   1414.0343    703.0000     49.5111
            9           2      0.5714      0.0143   1417.0849    703.0000     49.6844
            9           3      0.5714      0.0286   1419.9179    703.0000     49.8463
            9           4      0.5714      0.0429   1422.5136    703.0000     49.9956
            9           5      0.5714      0.0571   1424.8566    703.0000     50.1310
            9           6      0.5714      0.0714   1426.9355    703.0000     50.2517
            9           7      0.5714      0.0857   1428.7434    703.0000     50.3571
            9           8      0.5714      0.1000   1430.2779    703.0000     50.4469
            9           9      0.5714      0.1143   1431.5406    703.0000     50.5210
            9          10      0.5714      0.1286   1432.5378    703.0000     50.5796
            9          11      0.5714      0.1429   1433.2796    703.0000     50.6233
            9          12      0.5714      0.1571   1433.7804    703.0000     50.6529
            9          13      0.5714      0.1714   1434.0582    703.0000     50.6693
            9          14      0.5714      0.1857   1434.1347    703.0000     50.6738
            9          15      0.5714      0.2000   1434.0348    703.0000     50.6679
           10           1      0.6429      0.0000   1413.7229    703.0000     49.4935
           10           2      0.6429      0.0143   1416.7294    703.0000     49.6641
           10           3      0.6429      0.0286   1419.5245    703.0000     49.8238
           10           4      0.6429      0.0429   1422.0892    703.0000     49.9711
           10           5      0.6429      0.0571   1424.4085    703.0000     50.1050
           10           6      0.6429      0.0714   1426.4713    703.0000     50.2247
           10           7      0.6429      0.0857   1428.2710    703.0000     50.3295
           10           8      0.6429      0.1000   1429.8052    703.0000     50.4192
           10           9      0.6429      0.1143   1431.0758    703.0000     50.4937
           10          10      0.6429      0.1286   1432.0888    703.0000     50.5532
           10          11      0.6429      0.1429   1432.8541    703.0000     50.5982
           10          12      0.6429      0.1571   1433.3857    703.0000     50.6296
           10          13      0.6429      0.1714   1433.7012    703.0000     50.6482
           10          14      0.6429      0.1857   1433.8217    703.0000     50.6553
           10          15      0.6429      0.2000   1433.7713    703.0000     50.6523
           11           1      0.7143      0.0000   1413.0449    703.0000     49.4552
           11           2      0.7143      0.0143   1415.9554    703.0000     49.6201
           11           3      0.7143      0.0286   1418.6678    703.0000     49.7748
           11           4      0.7143      0.0429   1421.1645    703.0000     49.9179
           11           5      0.7143      0.0571   1423.4313    703.0000     50.0485
           11           6      0.7143      0.0714   1425.4581    703.0000     50.1659
           11           7      0.7143      0.0857   1427.2390    703.0000     50.2694
           11           8      0.7143      0.1000   1428.7719    703.0000     50.3588
           11           9      0.7143      0.1143   1430.0587    703.0000     50.4340
           11          10      0.7143      0.1286   1431.1053    703.0000     50.4954
           11          11      0.7143      0.1429   1431.9212    703.0000     50.5433
           11          12      0.7143      0.1571   1432.5198    703.0000     50.5786
           11          13      0.7143      0.1714   1432.9176    703.0000     50.6020
           11          14      0.7143      0.1857   1433.1343    703.0000     50.6148
           11          15      0.7143      0.2000   1433.1926    703.0000     50.6182
           12           1      0.7857      0.0000   1411.7448    703.0000     49.3818
           12           2      0.7857      0.0143   1414.4706    703.0000     49.5358
           12           3      0.7857      0.0286   1417.0231    703.0000     49.6809
           12           4      0.7857      0.0429   1419.3868    703.0000     49.8159
           12           5      0.7857      0.0571   1421.5499    703.0000     49.9401
           12           6      0.7857      0.0714   1423.5040    703.0000     50.0527
           12           7      0.7857      0.0857   1425.2445    703.0000     50.1535
           12           8      0.7857      0.1000   1426.7703    703.0000     50.2421
           12           9      0.7857      0.1143   1428.0840    703.0000     50.3186
           12          10      0.7857      0.1286   1429.1915    703.0000     50.3833
           12          11      0.7857      0.1429   1430.1022    703.0000     50.4366
           12          12      0.7857      0.1571   1430.8281    703.0000     50.4791
           12          13      0.7857      0.1714   1431.3842    703.0000     50.5118
           12          14      0.7857      0.1857   1431.7878    703.0000     50.5355
           12          15      0.7857      0.2000   1432.0586    703.0000     50.5514
           13           1      0.8571      0.0000   1409.4556    703.0000     49.2532
           13           2      0.8571      0.0143   1411.8545    703.0000     49.3880
           13           3      0.8571      0.0286   1414.1199    703.0000     49.5160
           13           4      0.8571      0.0429   1416.2406    703.0000     49.6363
           13           5      0.8571      0.0571   1418.2085    703.0000     49.7485
           13           6      0.8571      0.0714   1420.0188    703.0000     49.8521
           13           7      0.8571      0.0857   1421.6702    703.0000     49.9470
           13           8      0.8571      0.1000   1423.1645    703.0000     50.0331
           13           9      0.8571      0.1143   1424.5068    703.0000     50.1107
           13          10      0.8571      0.1286   1425.7050    703.0000     50.1802
           13          11      0.8571      0.1429   1426.7695    703.0000     50.2420
           13          12      0.8571      0.1571   1427.7126    703.0000     50.2970
           13          13      0.8571      0.1714   1428.5480    703.0000     50.3457
           13          14      0.8571      0.1857   1429.2900    703.0000     50.3891
           13          15      0.8571      0.2000   1429.9528    703.0000     50.4278
           14           1      0.9286      0.0000   1405.7624    703.0000     49.0471
           14           2      0.9286      0.0143   1407.6280    703.0000     49.1510
           14           3      0.9286      0.0286   1409.4126    703.0000     49.2508
           14           4      0.9286      0.0429   1411.1105    703.0000     49.3461
           14           5      0.9286      0.0571   1412.7198    703.0000     49.4368
           14           6      0.9286      0.0714   1414.2421    703.0000     49.5229
           14           7      0.9286      0.0857   1415.6825    703.0000     49.6046
           14           8      0.9286      0.1000   1417.0505    703.0000     49.6824
           14           9      0.9286      0.1143   1418.3589    703.0000     49.7571
           14          10      0.9286      0.1286   1419.6248    703.0000     49.8295
           14          11      0.9286      0.1429   1420.8681    703.0000     49.9009
           14          12      0.9286      0.1571   1422.1112    703.0000     49.9724
           14          13      0.9286      0.1714   1423.3775    703.0000     50.0454
           14          14      0.9286      0.1857   1424.6881    703.0000     50.1212
           14          15      0.9286      0.2000   1426.0577    703.0000     50.2007
           15           1      1.0000      0.0000   1400.4247    703.0000     48.7522
           15           2      1.0000      0.0143   1401.5057    703.0000     48.8117
           15           3      1.0000      0.0286   1402.5505    703.0000     48.8693
           15           4      1.0000      0.0429   1403.5582    703.0000     48.9249
           15           5      1.0000      0.0571   1404.5312    703.0000     48.9788
           15           6      1.0000      0.0714   1405.4759    703.0000     49.0312
           15           7      1.0000      0.0857   1406.4033    703.0000     49.0828
           15           8      1.0000      0.1000   1407.3307    703.0000     49.1344
           15           9      1.0000      0.1143   1408.2829    703.0000     49.1876
           15          10      1.0000      0.1286   1409.2951    703.0000     49.2442
           15          11      1.0000      0.1429   1410.4168    703.0000     49.3071
           15          12      1.0000      0.1571   1411.7166    703.0000     49.3802
           15          13      1.0000      0.1714   1413.2908    703.0000     49.4691
           15          14      1.0000      0.1857   1415.2750    703.0000     49.5814
           15          15      1.0000      0.2000   1417.8608    703.0000     49.7286
