 ====================================================================================
               Transient state solution for a 2D rectangular plate
                    for applications in steel reheating
                 e.g. Reheating furnaces for rolling processing
 ====================================================================================
 Author: Dickson Alves de Souza

 Based on lectures by professor Roberto Parreiras Tavares

 and book Numerical Heat Transfer and Fluid Flow
 by Suhas V. Patankar (1980)

 Federal University of Minas Gerais (UFMG)
 October 26th, 2017
 ====================================================================================
                              Input parameters:

 Lenght in X direction (meters):           1.0000
 Lenght in Y direction (meters):           0.2000
 Nodes in X direction:                         15
 Nodes in Y direction:                         15
 ====================================================================================

                       STAGE                1/  5
                       START Time:         0.0000
                       END Time:        1140.0000
                       Iterations:             1133

 ====================================================================================
 Temperature of fluid at left face (T left):             1223.1500
 Temperature of fluid at right face (T right):           1223.1500
 Temperature of fluid at bottom face (T bottom):         1223.1500
 Temperature of fluid at top face (T top):               1223.1500
 ------------------------------------------------------------------------------------
 Heat transfer coefficient at left face (H left):          50.0000
 Heat transfer coefficient at right face (H right):        50.0000
 Heat transfer coefficient at bottom face (H bottom):       8.0000
 Heat transfer coefficient at top face (H top):           150.0000
 ====================================================================================


 ====================================================================================

                       STAGE                2/  5
                       START Time:      1140.0000
                       END Time:        3060.0000
                       Iterations:             1133

 ====================================================================================
 Temperature of fluid at left face (T left):             1423.1500
 Temperature of fluid at right face (T right):           1423.1500
 Temperature of fluid at bottom face (T bottom):         1423.1500
 Temperature of fluid at top face (T top):               1423.1500
 ------------------------------------------------------------------------------------
 Heat transfer coefficient at left face (H left):          50.0000
 Heat transfer coefficient at right face (H right):        50.0000
 Heat transfer coefficient at bottom face (H bottom):       8.0000
 Heat transfer coefficient at top face (H top):           150.0000
 ====================================================================================


 ====================================================================================

                       STAGE                3/  5
                       START Time:      3060.0000
                       END Time:        4980.0000
                       Iterations:             1133

 ====================================================================================
 Temperature of fluid at left face (T left):             1513.1500
 Temperature of fluid at right face (T right):           1513.1500
 Temperature of fluid at bottom face (T bottom):         1513.1500
 Temperature of fluid at top face (T top):               1513.1500
 ------------------------------------------------------------------------------------
 Heat transfer coefficient at left face (H left):          50.0000
 Heat transfer coefficient at right face (H right):        50.0000
 Heat transfer coefficient at bottom face (H bottom):       8.0000
 Heat transfer coefficient at top face (H top):           150.0000
 ====================================================================================


 ====================================================================================

                       STAGE                4/  5
                       START Time:      4980.0000
                       END Time:        8400.0000
                       Iterations:             1133

 ====================================================================================
 Temperature of fluid at left face (T left):             1503.1500
 Temperature of fluid at right face (T right):           1503.1500
 Temperature of fluid at bottom face (T bottom):         1503.1500
 Temperature of fluid at top face (T top):               1523.1500
 ------------------------------------------------------------------------------------
 Heat transfer coefficient at left face (H left):          50.0000
 Heat transfer coefficient at right face (H right):        50.0000
 Heat transfer coefficient at bottom face (H bottom):       8.0000
 Heat transfer coefficient at top face (H top):           150.0000
 ====================================================================================


 ====================================================================================

                       STAGE                5/  5
                       START Time:      8400.0000
                       END Time:       18400.0000
                       Iterations:             1133

 ====================================================================================
 Temperature of fluid at left face (T left):             1393.1500
 Temperature of fluid at right face (T right):           1393.1500
 Temperature of fluid at bottom face (T bottom):         1393.1500
 Temperature of fluid at top face (T top):               1433.1500
 ------------------------------------------------------------------------------------
 Heat transfer coefficient at left face (H left):          50.0000
 Heat transfer coefficient at right face (H right):        50.0000
 Heat transfer coefficient at bottom face (H bottom):       8.0000
 Heat transfer coefficient at top face (H top):           150.0000
 ====================================================================================


 SOLUTION of LINEAR SYSTEM: TDMA (tri-diagonal matrix algorithm)
      ADI approach employed in solution.
 Tolerance:       0.0010

 ====================================================================================
                    Calculation Results
 Current time:    14400.000000000000       seconds
 Maximum Temperature :    1425.9429558743941
 Minimum Temperature :    1397.1509705465278
 Average(algebraic, non-weigthed) Temperature :    1412.2358222336782
 ====================================================================================
            I           J        X(m)        Y(m)        T(K)  Cp(J/kg.K) K(W/sq-m.K)
 ====================================================================================
            1           1      0.0000      0.0000   1397.1510    703.0000     48.5732
            1           2      0.0000      0.0143   1397.7673    703.0000     48.6068
            1           3      0.0000      0.0286   1398.4133    703.0000     48.6421
            1           4      0.0000      0.0429   1399.0951    703.0000     48.6794
            1           5      0.0000      0.0571   1399.8204    703.0000     48.7191
            1           6      0.0000      0.0714   1400.5996    703.0000     48.7619
            1           7      0.0000      0.0857   1401.4465    703.0000     48.8084
            1           8      0.0000      0.1000   1402.3793    703.0000     48.8598
            1           9      0.0000      0.1143   1403.4227    703.0000     48.9174
            1          10      0.0000      0.1286   1404.6101    703.0000     48.9832
            1          11      0.0000      0.1429   1405.9876    703.0000     49.0596
            1          12      0.0000      0.1571   1407.6192    703.0000     49.1505
            1          13      0.0000      0.1714   1409.5952    703.0000     49.2610
            1          14      0.0000      0.1857   1412.0436    703.0000     49.3987
            1          15      0.0000      0.2000   1415.1473    703.0000     49.5742
            2           1      0.0714      0.0000   1400.0359    703.0000     48.7309
            2           2      0.0714      0.0143   1401.0898    703.0000     48.7888
            2           3      0.0714      0.0286   1402.1792    703.0000     48.8488
            2           4      0.0714      0.0429   1403.3100    703.0000     48.9112
            2           5      0.0714      0.0571   1404.4894    703.0000     48.9765
            2           6      0.0714      0.0714   1405.7255    703.0000     49.0451
            2           7      0.0714      0.0857   1407.0281    703.0000     49.1176
            2           8      0.0714      0.1000   1408.4080    703.0000     49.1946
            2           9      0.0714      0.1143   1409.8775    703.0000     49.2769
            2          10      0.0714      0.1286   1411.4500    703.0000     49.3652
            2          11      0.0714      0.1429   1413.1398    703.0000     49.4605
            2          12      0.0714      0.1571   1414.9611    703.0000     49.5636
            2          13      0.0714      0.1714   1416.9263    703.0000     49.6754
            2          14      0.0714      0.1857   1419.0442    703.0000     49.7963
            2          15      0.0714      0.2000   1421.3145    703.0000     49.9265
            3           1      0.1429      0.0000   1401.9301    703.0000     48.8350
            3           2      0.1429      0.0143   1403.2633    703.0000     48.9086
            3           3      0.1429      0.0286   1404.6172    703.0000     48.9835
            3           4      0.1429      0.0429   1405.9952    703.0000     49.0601
            3           5      0.1429      0.0571   1407.4007    703.0000     49.1383
            3           6      0.1429      0.0714   1408.8374    703.0000     49.2186
            3           7      0.1429      0.0857   1410.3093    703.0000     49.3011
            3           8      0.1429      0.1000   1411.8202    703.0000     49.3861
            3           9      0.1429      0.1143   1413.3740    703.0000     49.4738
            3          10      0.1429      0.1286   1414.9740    703.0000     49.5644
            3          11      0.1429      0.1429   1416.6229    703.0000     49.6581
            3          12      0.1429      0.1571   1418.3225    703.0000     49.7550
            3          13      0.1429      0.1714   1420.0729    703.0000     49.8552
            3          14      0.1429      0.1857   1421.8722    703.0000     49.9586
            3          15      0.1429      0.2000   1423.7163    703.0000     50.0650
            4           1      0.2143      0.0000   1403.0631    703.0000     48.8976
            4           2      0.2143      0.0143   1404.5603    703.0000     48.9804
            4           3      0.2143      0.0286   1406.0625    703.0000     49.0638
            4           4      0.2143      0.0429   1407.5708    703.0000     49.1478
            4           5      0.2143      0.0571   1409.0865    703.0000     49.2325
            4           6      0.2143      0.0714   1410.6106    703.0000     49.3180
            4           7      0.2143      0.0857   1412.1444    703.0000     49.4044
            4           8      0.2143      0.1000   1413.6892    703.0000     49.4916
            4           9      0.2143      0.1143   1415.2459    703.0000     49.5798
            4          10      0.2143      0.1286   1416.8154    703.0000     49.6690
            4          11      0.2143      0.1429   1418.3983    703.0000     49.7593
            4          12      0.2143      0.1571   1419.9946    703.0000     49.8507
            4          13      0.2143      0.1714   1421.6040    703.0000     49.9432
            4          14      0.2143      0.1857   1423.2257    703.0000     50.0367
            4          15      0.2143      0.2000   1424.8582    703.0000     50.1311
            5           1      0.2857      0.0000   1403.7094    703.0000     48.9333
            5           2      0.2857      0.0143   1405.2991    703.0000     49.0214
            5           3      0.2857      0.0286   1406.8827    703.0000     49.1095
            5           4      0.2857      0.0429   1408.4601    703.0000     49.1975
            5           5      0.2857      0.0571   1410.0312    703.0000     49.2855
            5           6      0.2857      0.0714   1411.5960    703.0000     49.3735
            5           7      0.2857      0.0857   1413.1547    703.0000     49.4614
            5           8      0.2857      0.1000   1414.7075    703.0000     49.5493
            5           9      0.2857      0.1143   1416.2548    703.0000     49.6371
            5          10      0.2857      0.1286   1417.7970    703.0000     49.7250
            5          11      0.2857      0.1429   1419.3345    703.0000     49.8129
            5          12      0.2857      0.1571   1420.8677    703.0000     49.9008
            5          13      0.2857      0.1714   1422.3970    703.0000     49.9888
            5          14      0.2857      0.1857   1423.9226    703.0000     50.0769
            5          15      0.2857      0.2000   1425.4449    703.0000     50.1651
            6           1      0.3571      0.0000   1404.0627    703.0000     48.9528
            6           2      0.3571      0.0143   1405.7028    703.0000     49.0438
            6           3      0.3571      0.0286   1407.3301    703.0000     49.1344
            6           4      0.3571      0.0429   1408.9439    703.0000     49.2246
            6           5      0.3571      0.0571   1410.5433    703.0000     49.3143
            6           6      0.3571      0.0714   1412.1280    703.0000     49.4034
            6           7      0.3571      0.0857   1413.6976    703.0000     49.4921
            6           8      0.3571      0.1000   1415.2521    703.0000     49.5802
            6           9      0.3571      0.1143   1416.7918    703.0000     49.6677
            6          10      0.3571      0.1286   1418.3169    703.0000     49.7547
            6          11      0.3571      0.1429   1419.8281    703.0000     49.8412
            6          12      0.3571      0.1571   1421.3261    703.0000     49.9272
            6          13      0.3571      0.1714   1422.8118    703.0000     50.0128
            6          14      0.3571      0.1857   1424.2864    703.0000     50.0980
            6          15      0.3571      0.2000   1425.7509    703.0000     50.1829
            7           1      0.4286      0.0000   1404.2370    703.0000     48.9625
            7           2      0.4286      0.0143   1405.9018    703.0000     49.0549
            7           3      0.4286      0.0286   1407.5506    703.0000     49.1467
            7           4      0.4286      0.0429   1409.1820    703.0000     49.2379
            7           5      0.4286      0.0571   1410.7950    703.0000     49.3284
            7           6      0.4286      0.0714   1412.3890    703.0000     49.4181
            7           7      0.4286      0.0857   1413.9634    703.0000     49.5071
            7           8      0.4286      0.1000   1415.5182    703.0000     49.5953
            7           9      0.4286      0.1143   1417.0535    703.0000     49.6826
            7          10      0.4286      0.1286   1418.5697    703.0000     49.7691
            7          11      0.4286      0.1429   1420.0677    703.0000     49.8549
            7          12      0.4286      0.1571   1421.5482    703.0000     49.9400
            7          13      0.4286      0.1714   1423.0126    703.0000     50.0244
            7          14      0.4286      0.1857   1424.4623    703.0000     50.1082
            7          15      0.4286      0.2000   1425.8988    703.0000     50.1914
            8           1      0.5000      0.0000   1404.2894    703.0000     48.9654
            8           2      0.5000      0.0143   1405.9617    703.0000     49.0582
            8           3      0.5000      0.0286   1407.6168    703.0000     49.1504
            8           4      0.5000      0.0429   1409.2535    703.0000     49.2419
            8           5      0.5000      0.0571   1410.8705    703.0000     49.3326
            8           6      0.5000      0.0714   1412.4672    703.0000     49.4226
            8           7      0.5000      0.0857   1414.0431    703.0000     49.5116
            8           8      0.5000      0.1000   1415.5979    703.0000     49.5998
            8           9      0.5000      0.1143   1417.1318    703.0000     49.6871
            8          10      0.5000      0.1286   1418.6454    703.0000     49.7735
            8          11      0.5000      0.1429   1420.1393    703.0000     49.8590
            8          12      0.5000      0.1571   1421.6145    703.0000     49.9438
            8          13      0.5000      0.1714   1423.0725    703.0000     50.0278
            8          14      0.5000      0.1857   1424.5148    703.0000     50.1112
            8          15      0.5000      0.2000   1425.9430    703.0000     50.1940
            9           1      0.5714      0.0000   1404.2371    703.0000     48.9625
            9           2      0.5714      0.0143   1405.9019    703.0000     49.0549
            9           3      0.5714      0.0286   1407.5506    703.0000     49.1467
            9           4      0.5714      0.0429   1409.1820    703.0000     49.2379
            9           5      0.5714      0.0571   1410.7951    703.0000     49.3284
            9           6      0.5714      0.0714   1412.3890    703.0000     49.4181
            9           7      0.5714      0.0857   1413.9635    703.0000     49.5071
            9           8      0.5714      0.1000   1415.5183    703.0000     49.5953
            9           9      0.5714      0.1143   1417.0536    703.0000     49.6826
            9          10      0.5714      0.1286   1418.5698    703.0000     49.7691
            9          11      0.5714      0.1429   1420.0677    703.0000     49.8549
            9          12      0.5714      0.1571   1421.5483    703.0000     49.9400
            9          13      0.5714      0.1714   1423.0127    703.0000     50.0244
            9          14      0.5714      0.1857   1424.4623    703.0000     50.1082
            9          15      0.5714      0.2000   1425.8989    703.0000     50.1914
           10           1      0.6429      0.0000   1404.0628    703.0000     48.9528
           10           2      0.6429      0.0143   1405.7029    703.0000     49.0438
           10           3      0.6429      0.0286   1407.3303    703.0000     49.1344
           10           4      0.6429      0.0429   1408.9440    703.0000     49.2246
           10           5      0.6429      0.0571   1410.5435    703.0000     49.3143
           10           6      0.6429      0.0714   1412.1282    703.0000     49.4034
           10           7      0.6429      0.0857   1413.6978    703.0000     49.4921
           10           8      0.6429      0.1000   1415.2523    703.0000     49.5802
           10           9      0.6429      0.1143   1416.7919    703.0000     49.6677
           10          10      0.6429      0.1286   1418.3170    703.0000     49.7547
           10          11      0.6429      0.1429   1419.8282    703.0000     49.8412
           10          12      0.6429      0.1571   1421.3262    703.0000     49.9272
           10          13      0.6429      0.1714   1422.8120    703.0000     50.0128
           10          14      0.6429      0.1857   1424.2865    703.0000     50.0980
           10          15      0.6429      0.2000   1425.7510    703.0000     50.1829
           11           1      0.7143      0.0000   1403.7096    703.0000     48.9333
           11           2      0.7143      0.0143   1405.2993    703.0000     49.0214
           11           3      0.7143      0.0286   1406.8830    703.0000     49.1095
           11           4      0.7143      0.0429   1408.4604    703.0000     49.1975
           11           5      0.7143      0.0571   1410.0315    703.0000     49.2855
           11           6      0.7143      0.0714   1411.5963    703.0000     49.3735
           11           7      0.7143      0.0857   1413.1550    703.0000     49.4614
           11           8      0.7143      0.1000   1414.7078    703.0000     49.5493
           11           9      0.7143      0.1143   1416.2551    703.0000     49.6371
           11          10      0.7143      0.1286   1417.7973    703.0000     49.7250
           11          11      0.7143      0.1429   1419.3348    703.0000     49.8129
           11          12      0.7143      0.1571   1420.8680    703.0000     49.9009
           11          13      0.7143      0.1714   1422.3972    703.0000     49.9889
           11          14      0.7143      0.1857   1423.9228    703.0000     50.0769
           11          15      0.7143      0.2000   1425.4451    703.0000     50.1651
           12           1      0.7857      0.0000   1403.0635    703.0000     48.8976
           12           2      0.7857      0.0143   1404.5608    703.0000     48.9804
           12           3      0.7857      0.0286   1406.0630    703.0000     49.0638
           12           4      0.7857      0.0429   1407.5714    703.0000     49.1479
           12           5      0.7857      0.0571   1409.0870    703.0000     49.2326
           12           6      0.7857      0.0714   1410.6112    703.0000     49.3181
           12           7      0.7857      0.0857   1412.1450    703.0000     49.4044
           12           8      0.7857      0.1000   1413.6898    703.0000     49.4916
           12           9      0.7857      0.1143   1415.2465    703.0000     49.5798
           12          10      0.7857      0.1286   1416.8160    703.0000     49.6691
           12          11      0.7857      0.1429   1418.3988    703.0000     49.7594
           12          12      0.7857      0.1571   1419.9951    703.0000     49.8508
           12          13      0.7857      0.1714   1421.6045    703.0000     49.9432
           12          14      0.7857      0.1857   1423.2261    703.0000     50.0367
           12          15      0.7857      0.2000   1424.8585    703.0000     50.1311
           13           1      0.8571      0.0000   1401.9308    703.0000     48.8351
           13           2      0.8571      0.0143   1403.2641    703.0000     48.9087
           13           3      0.8571      0.0286   1404.6181    703.0000     48.9836
           13           4      0.8571      0.0429   1405.9962    703.0000     49.0601
           13           5      0.8571      0.0571   1407.4017    703.0000     49.1384
           13           6      0.8571      0.0714   1408.8385    703.0000     49.2187
           13           7      0.8571      0.0857   1410.3104    703.0000     49.3012
           13           8      0.8571      0.1000   1411.8213    703.0000     49.3861
           13           9      0.8571      0.1143   1413.3751    703.0000     49.4738
           13          10      0.8571      0.1286   1414.9750    703.0000     49.5644
           13          11      0.8571      0.1429   1416.6239    703.0000     49.6581
           13          12      0.8571      0.1571   1418.3234    703.0000     49.7551
           13          13      0.8571      0.1714   1420.0737    703.0000     49.8553
           13          14      0.8571      0.1857   1421.8729    703.0000     49.9587
           13          15      0.8571      0.2000   1423.7169    703.0000     50.0650
           14           1      0.9286      0.0000   1400.0372    703.0000     48.7310
           14           2      0.9286      0.0143   1401.0913    703.0000     48.7889
           14           3      0.9286      0.0286   1402.1809    703.0000     48.8489
           14           4      0.9286      0.0429   1403.3118    703.0000     48.9113
           14           5      0.9286      0.0571   1404.4912    703.0000     48.9766
           14           6      0.9286      0.0714   1405.7275    703.0000     49.0452
           14           7      0.9286      0.0857   1407.0301    703.0000     49.1177
           14           8      0.9286      0.1000   1408.4100    703.0000     49.1947
           14           9      0.9286      0.1143   1409.8794    703.0000     49.2770
           14          10      0.9286      0.1286   1411.4519    703.0000     49.3653
           14          11      0.9286      0.1429   1413.1416    703.0000     49.4606
           14          12      0.9286      0.1571   1414.9627    703.0000     49.5637
           14          13      0.9286      0.1714   1416.9278    703.0000     49.6754
           14          14      0.9286      0.1857   1419.0455    703.0000     49.7964
           14          15      0.9286      0.2000   1421.3156    703.0000     49.9266
           15           1      1.0000      0.0000   1397.1516    703.0000     48.5732
           15           2      1.0000      0.0143   1397.7680    703.0000     48.6068
           15           3      1.0000      0.0286   1398.4141    703.0000     48.6421
           15           4      1.0000      0.0429   1399.0959    703.0000     48.6794
           15           5      1.0000      0.0571   1399.8212    703.0000     48.7191
           15           6      1.0000      0.0714   1400.6005    703.0000     48.7619
           15           7      1.0000      0.0857   1401.4474    703.0000     48.8085
           15           8      1.0000      0.1000   1402.3802    703.0000     48.8599
           15           9      1.0000      0.1143   1403.4236    703.0000     48.9175
           15          10      1.0000      0.1286   1404.6110    703.0000     48.9832
           15          11      1.0000      0.1429   1405.9884    703.0000     49.0597
           15          12      1.0000      0.1571   1407.6200    703.0000     49.1506
           15          13      1.0000      0.1714   1409.5959    703.0000     49.2611
           15          14      1.0000      0.1857   1412.0442    703.0000     49.3987
           15          15      1.0000      0.2000   1415.1478    703.0000     49.5742
