 ====================================================================================
               Transient state solution for a 2D rectangular plate
                    for applications in steel reheating
                 e.g. Reheating furnaces for rolling processing
 ====================================================================================
 Author: Dickson Alves de Souza

 Based on lectures by professor Roberto Parreiras Tavares

 and book Numerical Heat Transfer and Fluid Flow
 by Suhas V. Patankar (1980)

 Federal University of Minas Gerais (UFMG)
 October 26th, 2017
 ====================================================================================
                              Input parameters:

 Lenght in X direction (meters):           1.0000
 Lenght in Y direction (meters):           0.2000
 Nodes in X direction:                         15
 Nodes in Y direction:                         15
 ====================================================================================

                       STAGE                1/  5
                       START Time:         0.0000
                       END Time:        1140.0000
                       Iterations:             1244

 ====================================================================================
 Temperature of fluid at left face (T left):             1223.1500
 Temperature of fluid at right face (T right):           1223.1500
 Temperature of fluid at bottom face (T bottom):         1223.1500
 Temperature of fluid at top face (T top):               1223.1500
 ------------------------------------------------------------------------------------
 Heat transfer coefficient at left face (H left):          50.0000
 Heat transfer coefficient at right face (H right):        50.0000
 Heat transfer coefficient at bottom face (H bottom):       8.0000
 Heat transfer coefficient at top face (H top):           150.0000
 ====================================================================================


 ====================================================================================

                       STAGE                2/  5
                       START Time:      1140.0000
                       END Time:        3060.0000
                       Iterations:             1244

 ====================================================================================
 Temperature of fluid at left face (T left):             1423.1500
 Temperature of fluid at right face (T right):           1423.1500
 Temperature of fluid at bottom face (T bottom):         1423.1500
 Temperature of fluid at top face (T top):               1423.1500
 ------------------------------------------------------------------------------------
 Heat transfer coefficient at left face (H left):          50.0000
 Heat transfer coefficient at right face (H right):        50.0000
 Heat transfer coefficient at bottom face (H bottom):       8.0000
 Heat transfer coefficient at top face (H top):           150.0000
 ====================================================================================


 ====================================================================================

                       STAGE                3/  5
                       START Time:      3060.0000
                       END Time:        4980.0000
                       Iterations:             1244

 ====================================================================================
 Temperature of fluid at left face (T left):             1513.1500
 Temperature of fluid at right face (T right):           1513.1500
 Temperature of fluid at bottom face (T bottom):         1513.1500
 Temperature of fluid at top face (T top):               1513.1500
 ------------------------------------------------------------------------------------
 Heat transfer coefficient at left face (H left):          50.0000
 Heat transfer coefficient at right face (H right):        50.0000
 Heat transfer coefficient at bottom face (H bottom):       8.0000
 Heat transfer coefficient at top face (H top):           150.0000
 ====================================================================================


 ====================================================================================

                       STAGE                4/  5
                       START Time:      4980.0000
                       END Time:        8400.0000
                       Iterations:             1244

 ====================================================================================
 Temperature of fluid at left face (T left):             1503.1500
 Temperature of fluid at right face (T right):           1503.1500
 Temperature of fluid at bottom face (T bottom):         1503.1500
 Temperature of fluid at top face (T top):               1523.1500
 ------------------------------------------------------------------------------------
 Heat transfer coefficient at left face (H left):          50.0000
 Heat transfer coefficient at right face (H right):        50.0000
 Heat transfer coefficient at bottom face (H bottom):       8.0000
 Heat transfer coefficient at top face (H top):           150.0000
 ====================================================================================


 ====================================================================================

                       STAGE                5/  5
                       START Time:      8400.0000
                       END Time:       18400.0000
                       Iterations:             1244

 ====================================================================================
 Temperature of fluid at left face (T left):             1393.1500
 Temperature of fluid at right face (T right):           1393.1500
 Temperature of fluid at bottom face (T bottom):         1393.1500
 Temperature of fluid at top face (T top):               1433.1500
 ------------------------------------------------------------------------------------
 Heat transfer coefficient at left face (H left):          50.0000
 Heat transfer coefficient at right face (H right):        50.0000
 Heat transfer coefficient at bottom face (H bottom):       8.0000
 Heat transfer coefficient at top face (H top):           150.0000
 ====================================================================================


 SOLUTION of LINEAR SYSTEM: TDMA (tri-diagonal matrix algorithm)
      ADI approach employed in solution.
 Tolerance:       0.0010

 ====================================================================================
                    Calculation Results
 Current time:    17400.000000000000       seconds
 Maximum Temperature :    1425.2908014907171
 Minimum Temperature :    1396.9516348874852
 Average(algebraic, non-weigthed) Temperature :    1411.5127724711713
 ====================================================================================
            I           J        X(m)        Y(m)        T(K)  Cp(J/kg.K) K(W/sq-m.K)
 ====================================================================================
            1           1      0.0000      0.0000   1396.9517    703.0000     48.5623
            1           2      0.0000      0.0143   1397.5397    703.0000     48.5944
            1           3      0.0000      0.0286   1398.1615    703.0000     48.6283
            1           4      0.0000      0.0429   1398.8233    703.0000     48.6645
            1           5      0.0000      0.0571   1399.5335    703.0000     48.7034
            1           6      0.0000      0.0714   1400.3027    703.0000     48.7456
            1           7      0.0000      0.0857   1401.1447    703.0000     48.7918
            1           8      0.0000      0.1000   1402.0779    703.0000     48.8432
            1           9      0.0000      0.1143   1403.1269    703.0000     48.9011
            1          10      0.0000      0.1286   1404.3250    703.0000     48.9674
            1          11      0.0000      0.1429   1405.7181    703.0000     49.0446
            1          12      0.0000      0.1571   1407.3700    703.0000     49.1366
            1          13      0.0000      0.1714   1409.3705    703.0000     49.2485
            1          14      0.0000      0.1857   1411.8471    703.0000     49.3876
            1          15      0.0000      0.2000   1414.9824    703.0000     49.5648
            2           1      0.0714      0.0000   1399.6803    703.0000     48.7114
            2           2      0.0714      0.0143   1400.6838    703.0000     48.7665
            2           3      0.0714      0.0286   1401.7299    703.0000     48.8240
            2           4      0.0714      0.0429   1402.8254    703.0000     48.8844
            2           5      0.0714      0.0571   1403.9780    703.0000     48.9481
            2           6      0.0714      0.0714   1405.1964    703.0000     49.0157
            2           7      0.0714      0.0857   1406.4904    703.0000     49.0876
            2           8      0.0714      0.1000   1407.8711    703.0000     49.1646
            2           9      0.0714      0.1143   1409.3506    703.0000     49.2473
            2          10      0.0714      0.1286   1410.9424    703.0000     49.3367
            2          11      0.0714      0.1429   1412.6601    703.0000     49.4334
            2          12      0.0714      0.1571   1414.5173    703.0000     49.5385
            2          13      0.0714      0.1714   1416.5262    703.0000     49.6526
            2          14      0.0714      0.1857   1418.6942    703.0000     49.7763
            2          15      0.0714      0.2000   1421.0205    703.0000     49.9096
            3           1      0.1429      0.0000   1401.4391    703.0000     48.8080
            3           2      0.1429      0.0143   1402.7028    703.0000     48.8777
            3           3      0.1429      0.0286   1403.9971    703.0000     48.9492
            3           4      0.1429      0.0429   1405.3264    703.0000     49.0229
            3           5      0.1429      0.0571   1406.6951    703.0000     49.0990
            3           6      0.1429      0.0714   1408.1073    703.0000     49.1778
            3           7      0.1429      0.0857   1409.5675    703.0000     49.2595
            3           8      0.1429      0.1000   1411.0796    703.0000     49.3444
            3           9      0.1429      0.1143   1412.6474    703.0000     49.4327
            3          10      0.1429      0.1286   1414.2738    703.0000     49.5247
            3          11      0.1429      0.1429   1415.9612    703.0000     49.6204
            3          12      0.1429      0.1571   1417.7104    703.0000     49.7201
            3          13      0.1429      0.1714   1419.5208    703.0000     49.8236
            3          14      0.1429      0.1857   1421.3893    703.0000     49.9308
            3          15      0.1429      0.2000   1423.3105    703.0000     50.0416
            4           1      0.2143      0.0000   1402.4618    703.0000     48.8644
            4           2      0.2143      0.0143   1403.8738    703.0000     48.9424
            4           3      0.2143      0.0286   1405.3030    703.0000     49.0216
            4           4      0.2143      0.0429   1406.7518    703.0000     49.1022
            4           5      0.2143      0.0571   1408.2224    703.0000     49.1842
            4           6      0.2143      0.0714   1409.7166    703.0000     49.2679
            4           7      0.2143      0.0857   1411.2362    703.0000     49.3532
            4           8      0.2143      0.1000   1412.7824    703.0000     49.4403
            4           9      0.2143      0.1143   1414.3563    703.0000     49.5294
            4          10      0.2143      0.1286   1415.9581    703.0000     49.6203
            4          11      0.2143      0.1429   1417.5880    703.0000     49.7131
            4          12      0.2143      0.1571   1419.2450    703.0000     49.8078
            4          13      0.2143      0.1714   1420.9278    703.0000     49.9043
            4          14      0.2143      0.1857   1422.6341    703.0000     50.0025
            4          15      0.2143      0.2000   1424.3610    703.0000     50.1023
            5           1      0.2857      0.0000   1403.0241    703.0000     48.8954
            5           2      0.2857      0.0143   1404.5167    703.0000     48.9780
            5           3      0.2857      0.0286   1406.0173    703.0000     49.0613
            5           4      0.2857      0.0429   1407.5269    703.0000     49.1454
            5           5      0.2857      0.0571   1409.0467    703.0000     49.2303
            5           6      0.2857      0.0714   1410.5774    703.0000     49.3162
            5           7      0.2857      0.0857   1412.1198    703.0000     49.4030
            5           8      0.2857      0.1000   1413.6743    703.0000     49.4907
            5           9      0.2857      0.1143   1415.2411    703.0000     49.5795
            5          10      0.2857      0.1286   1416.8201    703.0000     49.6693
            5          11      0.2857      0.1429   1418.4111    703.0000     49.7601
            5          12      0.2857      0.1571   1420.0135    703.0000     49.8518
            5          13      0.2857      0.1714   1421.6263    703.0000     49.9445
            5          14      0.2857      0.1857   1423.2483    703.0000     50.0380
            5          15      0.2857      0.2000   1424.8781    703.0000     50.1322
            6           1      0.3571      0.0000   1403.3194    703.0000     48.9117
            6           2      0.3571      0.0143   1404.8541    703.0000     48.9967
            6           3      0.3571      0.0286   1406.3914    703.0000     49.0821
            6           4      0.3571      0.0429   1407.9316    703.0000     49.1680
            6           5      0.3571      0.0571   1409.4755    703.0000     49.2543
            6           6      0.3571      0.0714   1411.0232    703.0000     49.3412
            6           7      0.3571      0.0857   1412.5752    703.0000     49.4286
            6           8      0.3571      0.1000   1414.1315    703.0000     49.5166
            6           9      0.3571      0.1143   1415.6922    703.0000     49.6051
            6          10      0.3571      0.1286   1417.2572    703.0000     49.6942
            6          11      0.3571      0.1429   1418.8264    703.0000     49.7838
            6          12      0.3571      0.1571   1420.3994    703.0000     49.8740
            6          13      0.3571      0.1714   1421.9758    703.0000     49.9646
            6          14      0.3571      0.1857   1423.5548    703.0000     50.0557
            6          15      0.3571      0.2000   1425.1360    703.0000     50.1472
            7           1      0.4286      0.0000   1403.4599    703.0000     48.9195
            7           2      0.4286      0.0143   1405.0146    703.0000     49.0056
            7           3      0.4286      0.0286   1406.5691    703.0000     49.0920
            7           4      0.4286      0.0429   1408.1237    703.0000     49.1787
            7           5      0.4286      0.0571   1409.6786    703.0000     49.2657
            7           6      0.4286      0.0714   1411.2340    703.0000     49.3531
            7           7      0.4286      0.0857   1412.7899    703.0000     49.4408
            7           8      0.4286      0.1000   1414.3466    703.0000     49.5288
            7           9      0.4286      0.1143   1415.9039    703.0000     49.6172
            7          10      0.4286      0.1286   1417.4619    703.0000     49.7059
            7          11      0.4286      0.1429   1419.0205    703.0000     49.7949
            7          12      0.4286      0.1571   1420.5794    703.0000     49.8843
            7          13      0.4286      0.1714   1422.1384    703.0000     49.9739
            7          14      0.4286      0.1857   1423.6974    703.0000     50.0639
            7          15      0.4286      0.2000   1425.2559    703.0000     50.1541
            8           1      0.5000      0.0000   1403.5012    703.0000     48.9218
            8           2      0.5000      0.0143   1405.0618    703.0000     49.0082
            8           3      0.5000      0.0286   1406.6214    703.0000     49.0949
            8           4      0.5000      0.0429   1408.1801    703.0000     49.1818
            8           5      0.5000      0.0571   1409.7382    703.0000     49.2691
            8           6      0.5000      0.0714   1411.2958    703.0000     49.3566
            8           7      0.5000      0.0857   1412.8528    703.0000     49.4443
            8           8      0.5000      0.1000   1414.4095    703.0000     49.5324
            8           9      0.5000      0.1143   1415.9658    703.0000     49.6207
            8          10      0.5000      0.1286   1417.5217    703.0000     49.7093
            8          11      0.5000      0.1429   1419.0771    703.0000     49.7982
            8          12      0.5000      0.1571   1420.6319    703.0000     49.8873
            8          13      0.5000      0.1714   1422.1859    703.0000     49.9767
            8          14      0.5000      0.1857   1423.7389    703.0000     50.0663
            8          15      0.5000      0.2000   1425.2908    703.0000     50.1562
            9           1      0.5714      0.0000   1403.4599    703.0000     48.9195
            9           2      0.5714      0.0143   1405.0146    703.0000     49.0056
            9           3      0.5714      0.0286   1406.5691    703.0000     49.0920
            9           4      0.5714      0.0429   1408.1237    703.0000     49.1787
            9           5      0.5714      0.0571   1409.6786    703.0000     49.2657
            9           6      0.5714      0.0714   1411.2339    703.0000     49.3531
            9           7      0.5714      0.0857   1412.7899    703.0000     49.4408
            9           8      0.5714      0.1000   1414.3466    703.0000     49.5288
            9           9      0.5714      0.1143   1415.9039    703.0000     49.6172
            9          10      0.5714      0.1286   1417.4619    703.0000     49.7059
            9          11      0.5714      0.1429   1419.0204    703.0000     49.7949
            9          12      0.5714      0.1571   1420.5794    703.0000     49.8843
            9          13      0.5714      0.1714   1422.1384    703.0000     49.9739
            9          14      0.5714      0.1857   1423.6974    703.0000     50.0639
            9          15      0.5714      0.2000   1425.2559    703.0000     50.1541
           10           1      0.6429      0.0000   1403.3194    703.0000     48.9117
           10           2      0.6429      0.0143   1404.8541    703.0000     48.9967
           10           3      0.6429      0.0286   1406.3913    703.0000     49.0821
           10           4      0.6429      0.0429   1407.9316    703.0000     49.1680
           10           5      0.6429      0.0571   1409.4754    703.0000     49.2543
           10           6      0.6429      0.0714   1411.0232    703.0000     49.3412
           10           7      0.6429      0.0857   1412.5751    703.0000     49.4286
           10           8      0.6429      0.1000   1414.1314    703.0000     49.5166
           10           9      0.6429      0.1143   1415.6922    703.0000     49.6051
           10          10      0.6429      0.1286   1417.2572    703.0000     49.6942
           10          11      0.6429      0.1429   1418.8264    703.0000     49.7838
           10          12      0.6429      0.1571   1420.3994    703.0000     49.8740
           10          13      0.6429      0.1714   1421.9757    703.0000     49.9646
           10          14      0.6429      0.1857   1423.5548    703.0000     50.0557
           10          15      0.6429      0.2000   1425.1360    703.0000     50.1472
           11           1      0.7143      0.0000   1403.0241    703.0000     48.8954
           11           2      0.7143      0.0143   1404.5167    703.0000     48.9780
           11           3      0.7143      0.0286   1406.0173    703.0000     49.0613
           11           4      0.7143      0.0429   1407.5269    703.0000     49.1454
           11           5      0.7143      0.0571   1409.0467    703.0000     49.2303
           11           6      0.7143      0.0714   1410.5774    703.0000     49.3162
           11           7      0.7143      0.0857   1412.1198    703.0000     49.4030
           11           8      0.7143      0.1000   1413.6743    703.0000     49.4907
           11           9      0.7143      0.1143   1415.2411    703.0000     49.5795
           11          10      0.7143      0.1286   1416.8201    703.0000     49.6693
           11          11      0.7143      0.1429   1418.4111    703.0000     49.7601
           11          12      0.7143      0.1571   1420.0135    703.0000     49.8518
           11          13      0.7143      0.1714   1421.6263    703.0000     49.9445
           11          14      0.7143      0.1857   1423.2483    703.0000     50.0380
           11          15      0.7143      0.2000   1424.8781    703.0000     50.1322
           12           1      0.7857      0.0000   1402.4619    703.0000     48.8644
           12           2      0.7857      0.0143   1403.8739    703.0000     48.9424
           12           3      0.7857      0.0286   1405.3031    703.0000     49.0216
           12           4      0.7857      0.0429   1406.7520    703.0000     49.1022
           12           5      0.7857      0.0571   1408.2225    703.0000     49.1842
           12           6      0.7857      0.0714   1409.7168    703.0000     49.2679
           12           7      0.7857      0.0857   1411.2363    703.0000     49.3532
           12           8      0.7857      0.1000   1412.7826    703.0000     49.4404
           12           9      0.7857      0.1143   1414.3564    703.0000     49.5294
           12          10      0.7857      0.1286   1415.9583    703.0000     49.6203
           12          11      0.7857      0.1429   1417.5881    703.0000     49.7131
           12          12      0.7857      0.1571   1419.2451    703.0000     49.8078
           12          13      0.7857      0.1714   1420.9279    703.0000     49.9043
           12          14      0.7857      0.1857   1422.6342    703.0000     50.0025
           12          15      0.7857      0.2000   1424.3610    703.0000     50.1023
           13           1      0.8571      0.0000   1401.4394    703.0000     48.8080
           13           2      0.8571      0.0143   1402.7030    703.0000     48.8777
           13           3      0.8571      0.0286   1403.9974    703.0000     48.9492
           13           4      0.8571      0.0429   1405.3267    703.0000     49.0229
           13           5      0.8571      0.0571   1406.6954    703.0000     49.0990
           13           6      0.8571      0.0714   1408.1077    703.0000     49.1778
           13           7      0.8571      0.0857   1409.5678    703.0000     49.2595
           13           8      0.8571      0.1000   1411.0800    703.0000     49.3444
           13           9      0.8571      0.1143   1412.6477    703.0000     49.4327
           13          10      0.8571      0.1286   1414.2741    703.0000     49.5247
           13          11      0.8571      0.1429   1415.9615    703.0000     49.6204
           13          12      0.8571      0.1571   1417.7107    703.0000     49.7201
           13          13      0.8571      0.1714   1419.5210    703.0000     49.8236
           13          14      0.8571      0.1857   1421.3895    703.0000     49.9308
           13          15      0.8571      0.2000   1423.3106    703.0000     50.0416
           14           1      0.9286      0.0000   1399.6804    703.0000     48.7114
           14           2      0.9286      0.0143   1400.6839    703.0000     48.7665
           14           3      0.9286      0.0286   1401.7300    703.0000     48.8240
           14           4      0.9286      0.0429   1402.8255    703.0000     48.8844
           14           5      0.9286      0.0571   1403.9781    703.0000     48.9481
           14           6      0.9286      0.0714   1405.1965    703.0000     49.0157
           14           7      0.9286      0.0857   1406.4905    703.0000     49.0876
           14           8      0.9286      0.1000   1407.8711    703.0000     49.1646
           14           9      0.9286      0.1143   1409.3507    703.0000     49.2473
           14          10      0.9286      0.1286   1410.9425    703.0000     49.3367
           14          11      0.9286      0.1429   1412.6601    703.0000     49.4334
           14          12      0.9286      0.1571   1414.5174    703.0000     49.5385
           14          13      0.9286      0.1714   1416.5263    703.0000     49.6526
           14          14      0.9286      0.1857   1418.6943    703.0000     49.7763
           14          15      0.9286      0.2000   1421.0206    703.0000     49.9096
           15           1      1.0000      0.0000   1396.9516    703.0000     48.5623
           15           2      1.0000      0.0143   1397.5397    703.0000     48.5944
           15           3      1.0000      0.0286   1398.1614    703.0000     48.6283
           15           4      1.0000      0.0429   1398.8232    703.0000     48.6645
           15           5      1.0000      0.0571   1399.5334    703.0000     48.7034
           15           6      1.0000      0.0714   1400.3026    703.0000     48.7455
           15           7      1.0000      0.0857   1401.1446    703.0000     48.7918
           15           8      1.0000      0.1000   1402.0778    703.0000     48.8432
           15           9      1.0000      0.1143   1403.1268    703.0000     48.9011
           15          10      1.0000      0.1286   1404.3249    703.0000     48.9673
           15          11      1.0000      0.1429   1405.7180    703.0000     49.0446
           15          12      1.0000      0.1571   1407.3699    703.0000     49.1366
           15          13      1.0000      0.1714   1409.3704    703.0000     49.2484
           15          14      1.0000      0.1857   1411.8470    703.0000     49.3876
           15          15      1.0000      0.2000   1414.9823    703.0000     49.5648
