 ====================================================================================
               Transient state solution for a 2D rectangular plate
                    for applications in steel reheating
                 e.g. Reheating furnaces for rolling processing
 ====================================================================================
 Author: Dickson Alves de Souza

 Based on lectures by professor Roberto Parreiras Tavares

 and book Numerical Heat Transfer and Fluid Flow
 by Suhas V. Patankar (1980)

 Federal University of Minas Gerais (UFMG)
 October 26th, 2017
 ====================================================================================
                              Input parameters:

 Lenght in X direction (meters):           1.0000
 Lenght in Y direction (meters):           0.2000
 Nodes in X direction:                         15
 Nodes in Y direction:                         15
 ====================================================================================

                       STAGE                1/  5
                       START Time:         0.0000
                       END Time:        1140.0000
                       Iterations:             1230

 ====================================================================================
 Temperature of fluid at left face (T left):             1223.1500
 Temperature of fluid at right face (T right):           1223.1500
 Temperature of fluid at bottom face (T bottom):         1223.1500
 Temperature of fluid at top face (T top):               1223.1500
 ------------------------------------------------------------------------------------
 Heat transfer coefficient at left face (H left):          50.0000
 Heat transfer coefficient at right face (H right):        50.0000
 Heat transfer coefficient at bottom face (H bottom):       8.0000
 Heat transfer coefficient at top face (H top):           150.0000
 ====================================================================================


 ====================================================================================

                       STAGE                2/  5
                       START Time:      1140.0000
                       END Time:        3060.0000
                       Iterations:             1230

 ====================================================================================
 Temperature of fluid at left face (T left):             1423.1500
 Temperature of fluid at right face (T right):           1423.1500
 Temperature of fluid at bottom face (T bottom):         1423.1500
 Temperature of fluid at top face (T top):               1423.1500
 ------------------------------------------------------------------------------------
 Heat transfer coefficient at left face (H left):          50.0000
 Heat transfer coefficient at right face (H right):        50.0000
 Heat transfer coefficient at bottom face (H bottom):       8.0000
 Heat transfer coefficient at top face (H top):           150.0000
 ====================================================================================


 ====================================================================================

                       STAGE                3/  5
                       START Time:      3060.0000
                       END Time:        4980.0000
                       Iterations:             1230

 ====================================================================================
 Temperature of fluid at left face (T left):             1513.1500
 Temperature of fluid at right face (T right):           1513.1500
 Temperature of fluid at bottom face (T bottom):         1513.1500
 Temperature of fluid at top face (T top):               1513.1500
 ------------------------------------------------------------------------------------
 Heat transfer coefficient at left face (H left):          50.0000
 Heat transfer coefficient at right face (H right):        50.0000
 Heat transfer coefficient at bottom face (H bottom):       8.0000
 Heat transfer coefficient at top face (H top):           150.0000
 ====================================================================================


 ====================================================================================

                       STAGE                4/  5
                       START Time:      4980.0000
                       END Time:        8400.0000
                       Iterations:             1230

 ====================================================================================
 Temperature of fluid at left face (T left):             1503.1500
 Temperature of fluid at right face (T right):           1503.1500
 Temperature of fluid at bottom face (T bottom):         1503.1500
 Temperature of fluid at top face (T top):               1523.1500
 ------------------------------------------------------------------------------------
 Heat transfer coefficient at left face (H left):          50.0000
 Heat transfer coefficient at right face (H right):        50.0000
 Heat transfer coefficient at bottom face (H bottom):       8.0000
 Heat transfer coefficient at top face (H top):           150.0000
 ====================================================================================


 ====================================================================================

                       STAGE                5/  5
                       START Time:      8400.0000
                       END Time:       18400.0000
                       Iterations:             1230

 ====================================================================================
 Temperature of fluid at left face (T left):             1393.1500
 Temperature of fluid at right face (T right):           1393.1500
 Temperature of fluid at bottom face (T bottom):         1393.1500
 Temperature of fluid at top face (T top):               1433.1500
 ------------------------------------------------------------------------------------
 Heat transfer coefficient at left face (H left):          50.0000
 Heat transfer coefficient at right face (H right):        50.0000
 Heat transfer coefficient at bottom face (H bottom):       8.0000
 Heat transfer coefficient at top face (H top):           150.0000
 ====================================================================================


 SOLUTION of LINEAR SYSTEM: TDMA (tri-diagonal matrix algorithm)
      ADI approach employed in solution.
 Tolerance:       0.0010

 ====================================================================================
                    Calculation Results
 Current time:    17000.000000000000       seconds
 Maximum Temperature :    1425.3179840039666
 Minimum Temperature :    1396.9595723876459
 Average(algebraic, non-weigthed) Temperature :    1411.5423581020430
 ====================================================================================
            I           J        X(m)        Y(m)        T(K)  Cp(J/kg.K) K(W/sq-m.K)
 ====================================================================================
            1           1      0.0000      0.0000   1396.9596    703.0000     48.5628
            1           2      0.0000      0.0143   1397.5488    703.0000     48.5949
            1           3      0.0000      0.0286   1398.1715    703.0000     48.6289
            1           4      0.0000      0.0429   1398.8342    703.0000     48.6651
            1           5      0.0000      0.0571   1399.5450    703.0000     48.7040
            1           6      0.0000      0.0714   1400.3145    703.0000     48.7462
            1           7      0.0000      0.0857   1401.1567    703.0000     48.7925
            1           8      0.0000      0.1000   1402.0899    703.0000     48.8439
            1           9      0.0000      0.1143   1403.1387    703.0000     48.9017
            1          10      0.0000      0.1286   1404.3364    703.0000     48.9680
            1          11      0.0000      0.1429   1405.7288    703.0000     49.0452
            1          12      0.0000      0.1571   1407.3799    703.0000     49.1372
            1          13      0.0000      0.1714   1409.3795    703.0000     49.2490
            1          14      0.0000      0.1857   1411.8550    703.0000     49.3880
            1          15      0.0000      0.2000   1414.9890    703.0000     49.5652
            2           1      0.0714      0.0000   1399.6945    703.0000     48.7122
            2           2      0.0714      0.0143   1400.7000    703.0000     48.7674
            2           3      0.0714      0.0286   1401.7478    703.0000     48.8250
            2           4      0.0714      0.0429   1402.8448    703.0000     48.8855
            2           5      0.0714      0.0571   1403.9984    703.0000     48.9493
            2           6      0.0714      0.0714   1405.2175    703.0000     49.0168
            2           7      0.0714      0.0857   1406.5118    703.0000     49.0888
            2           8      0.0714      0.1000   1407.8924    703.0000     49.1658
            2           9      0.0714      0.1143   1409.3716    703.0000     49.2485
            2          10      0.0714      0.1286   1410.9626    703.0000     49.3378
            2          11      0.0714      0.1429   1412.6792    703.0000     49.4345
            2          12      0.0714      0.1571   1414.5350    703.0000     49.5395
            2          13      0.0714      0.1714   1416.5421    703.0000     49.6535
            2          14      0.0714      0.1857   1418.7082    703.0000     49.7771
            2          15      0.0714      0.2000   1421.0323    703.0000     49.9103
            3           1      0.1429      0.0000   1401.4588    703.0000     48.8091
            3           2      0.1429      0.0143   1402.7252    703.0000     48.8789
            3           3      0.1429      0.0286   1404.0220    703.0000     48.9506
            3           4      0.1429      0.0429   1405.3533    703.0000     49.0244
            3           5      0.1429      0.0571   1406.7234    703.0000     49.1006
            3           6      0.1429      0.0714   1408.1366    703.0000     49.1794
            3           7      0.1429      0.0857   1409.5973    703.0000     49.2612
            3           8      0.1429      0.1000   1411.1094    703.0000     49.3461
            3           9      0.1429      0.1143   1412.6765    703.0000     49.4344
            3          10      0.1429      0.1286   1414.3019    703.0000     49.5263
            3          11      0.1429      0.1429   1415.9878    703.0000     49.6219
            3          12      0.1429      0.1571   1417.7350    703.0000     49.7215
            3          13      0.1429      0.1714   1419.5429    703.0000     49.8248
            3          14      0.1429      0.1857   1421.4087    703.0000     49.9319
            3          15      0.1429      0.2000   1423.3267    703.0000     50.0425
            4           1      0.2143      0.0000   1402.4862    703.0000     48.8657
            4           2      0.2143      0.0143   1403.9016    703.0000     48.9439
            4           3      0.2143      0.0286   1405.3338    703.0000     49.0233
            4           4      0.2143      0.0429   1406.7850    703.0000     49.1040
            4           5      0.2143      0.0571   1408.2574    703.0000     49.1862
            4           6      0.2143      0.0714   1409.7529    703.0000     49.2699
            4           7      0.2143      0.0857   1411.2730    703.0000     49.3553
            4           8      0.2143      0.1000   1412.8192    703.0000     49.4424
            4           9      0.2143      0.1143   1414.3923    703.0000     49.5314
            4          10      0.2143      0.1286   1415.9929    703.0000     49.6222
            4          11      0.2143      0.1429   1417.6208    703.0000     49.7149
            4          12      0.2143      0.1571   1419.2754    703.0000     49.8095
            4          13      0.2143      0.1714   1420.9552    703.0000     49.9059
            4          14      0.2143      0.1857   1422.6581    703.0000     50.0039
            4          15      0.2143      0.2000   1424.3811    703.0000     50.1035
            5           1      0.2857      0.0000   1403.0522    703.0000     48.8969
            5           2      0.2857      0.0143   1404.5488    703.0000     48.9798
            5           3      0.2857      0.0286   1406.0527    703.0000     49.0632
            5           4      0.2857      0.0429   1407.5651    703.0000     49.1475
            5           5      0.2857      0.0571   1409.0870    703.0000     49.2326
            5           6      0.2857      0.0714   1410.6192    703.0000     49.3185
            5           7      0.2857      0.0857   1412.1622    703.0000     49.4054
            5           8      0.2857      0.1000   1413.7166    703.0000     49.4931
            5           9      0.2857      0.1143   1415.2826    703.0000     49.5819
            5          10      0.2857      0.1286   1416.8601    703.0000     49.6716
            5          11      0.2857      0.1429   1418.4489    703.0000     49.7622
            5          12      0.2857      0.1571   1420.0485    703.0000     49.8538
            5          13      0.2857      0.1714   1421.6578    703.0000     49.9463
            5          14      0.2857      0.1857   1423.2759    703.0000     50.0396
            5          15      0.2857      0.2000   1424.9013    703.0000     50.1336
            6           1      0.3571      0.0000   1403.3501    703.0000     48.9134
            6           2      0.3571      0.0143   1404.8892    703.0000     48.9986
            6           3      0.3571      0.0286   1406.4302    703.0000     49.0842
            6           4      0.3571      0.0429   1407.9735    703.0000     49.1703
            6           5      0.3571      0.0571   1409.5196    703.0000     49.2568
            6           6      0.3571      0.0714   1411.0689    703.0000     49.3438
            6           7      0.3571      0.0857   1412.6216    703.0000     49.4313
            6           8      0.3571      0.1000   1414.1778    703.0000     49.5192
            6           9      0.3571      0.1143   1415.7376    703.0000     49.6077
            6          10      0.3571      0.1286   1417.3011    703.0000     49.6967
            6          11      0.3571      0.1429   1418.8678    703.0000     49.7862
            6          12      0.3571      0.1571   1420.4377    703.0000     49.8762
            6          13      0.3571      0.1714   1422.0103    703.0000     49.9666
            6          14      0.3571      0.1857   1423.5851    703.0000     50.0574
            6          15      0.3571      0.2000   1425.1614    703.0000     50.1487
            7           1      0.4286      0.0000   1403.4922    703.0000     48.9213
            7           2      0.4286      0.0143   1405.0515    703.0000     49.0076
            7           3      0.4286      0.0286   1406.6100    703.0000     49.0943
            7           4      0.4286      0.0429   1408.1677    703.0000     49.1812
            7           5      0.4286      0.0571   1409.7250    703.0000     49.2683
            7           6      0.4286      0.0714   1411.2820    703.0000     49.3558
            7           7      0.4286      0.0857   1412.8387    703.0000     49.4435
            7           8      0.4286      0.1000   1414.3953    703.0000     49.5316
            7           9      0.4286      0.1143   1415.9517    703.0000     49.6199
            7          10      0.4286      0.1286   1417.5080    703.0000     49.7085
            7          11      0.4286      0.1429   1419.0640    703.0000     49.7974
            7          12      0.4286      0.1571   1420.6197    703.0000     49.8866
            7          13      0.4286      0.1714   1422.1748    703.0000     49.9760
            7          14      0.4286      0.1857   1423.7292    703.0000     50.0657
            7          15      0.4286      0.2000   1425.2826    703.0000     50.1557
            8           1      0.5000      0.0000   1403.5341    703.0000     48.9236
            8           2      0.5000      0.0143   1405.0993    703.0000     49.0103
            8           3      0.5000      0.0286   1406.6629    703.0000     49.0972
            8           4      0.5000      0.0429   1408.2249    703.0000     49.1843
            8           5      0.5000      0.0571   1409.7854    703.0000     49.2717
            8           6      0.5000      0.0714   1411.3446    703.0000     49.3593
            8           7      0.5000      0.0857   1412.9025    703.0000     49.4471
            8           8      0.5000      0.1000   1414.4591    703.0000     49.5352
            8           9      0.5000      0.1143   1416.0145    703.0000     49.6235
            8          10      0.5000      0.1286   1417.5686    703.0000     49.7120
            8          11      0.5000      0.1429   1419.1214    703.0000     49.8007
            8          12      0.5000      0.1571   1420.6728    703.0000     49.8896
            8          13      0.5000      0.1714   1422.2228    703.0000     49.9788
            8          14      0.5000      0.1857   1423.7713    703.0000     50.0682
            8          15      0.5000      0.2000   1425.3180    703.0000     50.1577
            9           1      0.5714      0.0000   1403.4922    703.0000     48.9213
            9           2      0.5714      0.0143   1405.0515    703.0000     49.0076
            9           3      0.5714      0.0286   1406.6099    703.0000     49.0943
            9           4      0.5714      0.0429   1408.1677    703.0000     49.1812
            9           5      0.5714      0.0571   1409.7250    703.0000     49.2683
            9           6      0.5714      0.0714   1411.2820    703.0000     49.3558
            9           7      0.5714      0.0857   1412.8387    703.0000     49.4435
            9           8      0.5714      0.1000   1414.3953    703.0000     49.5316
            9           9      0.5714      0.1143   1415.9517    703.0000     49.6199
            9          10      0.5714      0.1286   1417.5080    703.0000     49.7085
            9          11      0.5714      0.1429   1419.0640    703.0000     49.7974
            9          12      0.5714      0.1571   1420.6197    703.0000     49.8866
            9          13      0.5714      0.1714   1422.1748    703.0000     49.9760
            9          14      0.5714      0.1857   1423.7292    703.0000     50.0657
            9          15      0.5714      0.2000   1425.2826    703.0000     50.1557
           10           1      0.6429      0.0000   1403.3501    703.0000     48.9134
           10           2      0.6429      0.0143   1404.8892    703.0000     48.9986
           10           3      0.6429      0.0286   1406.4302    703.0000     49.0842
           10           4      0.6429      0.0429   1407.9735    703.0000     49.1703
           10           5      0.6429      0.0571   1409.5196    703.0000     49.2568
           10           6      0.6429      0.0714   1411.0689    703.0000     49.3438
           10           7      0.6429      0.0857   1412.6215    703.0000     49.4313
           10           8      0.6429      0.1000   1414.1778    703.0000     49.5192
           10           9      0.6429      0.1143   1415.7376    703.0000     49.6077
           10          10      0.6429      0.1286   1417.3010    703.0000     49.6967
           10          11      0.6429      0.1429   1418.8678    703.0000     49.7862
           10          12      0.6429      0.1571   1420.4377    703.0000     49.8762
           10          13      0.6429      0.1714   1422.0103    703.0000     49.9666
           10          14      0.6429      0.1857   1423.5851    703.0000     50.0574
           10          15      0.6429      0.2000   1425.1614    703.0000     50.1487
           11           1      0.7143      0.0000   1403.0522    703.0000     48.8969
           11           2      0.7143      0.0143   1404.5488    703.0000     48.9798
           11           3      0.7143      0.0286   1406.0528    703.0000     49.0633
           11           4      0.7143      0.0429   1407.5652    703.0000     49.1475
           11           5      0.7143      0.0571   1409.0871    703.0000     49.2326
           11           6      0.7143      0.0714   1410.6192    703.0000     49.3185
           11           7      0.7143      0.0857   1412.1622    703.0000     49.4054
           11           8      0.7143      0.1000   1413.7167    703.0000     49.4931
           11           9      0.7143      0.1143   1415.2826    703.0000     49.5819
           11          10      0.7143      0.1286   1416.8602    703.0000     49.6716
           11          11      0.7143      0.1429   1418.4490    703.0000     49.7622
           11          12      0.7143      0.1571   1420.0485    703.0000     49.8538
           11          13      0.7143      0.1714   1421.6579    703.0000     49.9463
           11          14      0.7143      0.1857   1423.2759    703.0000     50.0396
           11          15      0.7143      0.2000   1424.9013    703.0000     50.1336
           12           1      0.7857      0.0000   1402.4863    703.0000     48.8657
           12           2      0.7857      0.0143   1403.9017    703.0000     48.9439
           12           3      0.7857      0.0286   1405.3340    703.0000     49.0233
           12           4      0.7857      0.0429   1406.7852    703.0000     49.1040
           12           5      0.7857      0.0571   1408.2576    703.0000     49.1862
           12           6      0.7857      0.0714   1409.7531    703.0000     49.2699
           12           7      0.7857      0.0857   1411.2732    703.0000     49.3553
           12           8      0.7857      0.1000   1412.8194    703.0000     49.4424
           12           9      0.7857      0.1143   1414.3925    703.0000     49.5314
           12          10      0.7857      0.1286   1415.9931    703.0000     49.6222
           12          11      0.7857      0.1429   1417.6210    703.0000     49.7150
           12          12      0.7857      0.1571   1419.2756    703.0000     49.8095
           12          13      0.7857      0.1714   1420.9554    703.0000     49.9059
           12          14      0.7857      0.1857   1422.6582    703.0000     50.0039
           12          15      0.7857      0.2000   1424.3812    703.0000     50.1035
           13           1      0.8571      0.0000   1401.4591    703.0000     48.8091
           13           2      0.8571      0.0143   1402.7256    703.0000     48.8789
           13           3      0.8571      0.0286   1404.0223    703.0000     48.9506
           13           4      0.8571      0.0429   1405.3537    703.0000     49.0244
           13           5      0.8571      0.0571   1406.7238    703.0000     49.1006
           13           6      0.8571      0.0714   1408.1371    703.0000     49.1794
           13           7      0.8571      0.0857   1409.5977    703.0000     49.2612
           13           8      0.8571      0.1000   1411.1098    703.0000     49.3461
           13           9      0.8571      0.1143   1412.6770    703.0000     49.4344
           13          10      0.8571      0.1286   1414.3024    703.0000     49.5263
           13          11      0.8571      0.1429   1415.9882    703.0000     49.6220
           13          12      0.8571      0.1571   1417.7354    703.0000     49.7215
           13          13      0.8571      0.1714   1419.5433    703.0000     49.8249
           13          14      0.8571      0.1857   1421.4090    703.0000     49.9320
           13          15      0.8571      0.2000   1423.3270    703.0000     50.0425
           14           1      0.9286      0.0000   1399.6946    703.0000     48.7122
           14           2      0.9286      0.0143   1400.7001    703.0000     48.7674
           14           3      0.9286      0.0286   1401.7480    703.0000     48.8250
           14           4      0.9286      0.0429   1402.8449    703.0000     48.8855
           14           5      0.9286      0.0571   1403.9985    703.0000     48.9493
           14           6      0.9286      0.0714   1405.2176    703.0000     49.0169
           14           7      0.9286      0.0857   1406.5120    703.0000     49.0888
           14           8      0.9286      0.1000   1407.8926    703.0000     49.1658
           14           9      0.9286      0.1143   1409.3718    703.0000     49.2485
           14          10      0.9286      0.1286   1410.9627    703.0000     49.3378
           14          11      0.9286      0.1429   1412.6793    703.0000     49.4345
           14          12      0.9286      0.1571   1414.5352    703.0000     49.5395
           14          13      0.9286      0.1714   1416.5422    703.0000     49.6535
           14          14      0.9286      0.1857   1418.7083    703.0000     49.7771
           14          15      0.9286      0.2000   1421.0323    703.0000     49.9103
           15           1      1.0000      0.0000   1396.9596    703.0000     48.5628
           15           2      1.0000      0.0143   1397.5487    703.0000     48.5949
           15           3      1.0000      0.0286   1398.1714    703.0000     48.6289
           15           4      1.0000      0.0429   1398.8341    703.0000     48.6651
           15           5      1.0000      0.0571   1399.5448    703.0000     48.7040
           15           6      1.0000      0.0714   1400.3144    703.0000     48.7462
           15           7      1.0000      0.0857   1401.1566    703.0000     48.7925
           15           8      1.0000      0.1000   1402.0898    703.0000     48.8438
           15           9      1.0000      0.1143   1403.1386    703.0000     48.9017
           15          10      1.0000      0.1286   1404.3362    703.0000     48.9680
           15          11      1.0000      0.1429   1405.7287    703.0000     49.0452
           15          12      1.0000      0.1571   1407.3798    703.0000     49.1372
           15          13      1.0000      0.1714   1409.3794    703.0000     49.2490
           15          14      1.0000      0.1857   1411.8549    703.0000     49.3880
           15          15      1.0000      0.2000   1414.9889    703.0000     49.5652
