 ====================================================================================
               Transient state solution for a 2D rectangular plate
                    for applications in steel reheating
                 e.g. Reheating furnaces for rolling processing
 ====================================================================================
 Author: Dickson Alves de Souza

 Based on lectures by professor Roberto Parreiras Tavares

 and book Numerical Heat Transfer and Fluid Flow
 by Suhas V. Patankar (1980)

 Federal University of Minas Gerais (UFMG)
 October 26th, 2017
 ====================================================================================
                              Input parameters:

 Lenght in X direction (meters):           1.0000
 Lenght in Y direction (meters):           0.2000
 Nodes in X direction:                         15
 Nodes in Y direction:                         15
 ====================================================================================

                       STAGE                1/  5
                       START Time:         0.0000
                       END Time:        1140.0000
                       Iterations:             1097

 ====================================================================================
 Temperature of fluid at left face (T left):             1223.1500
 Temperature of fluid at right face (T right):           1223.1500
 Temperature of fluid at bottom face (T bottom):         1223.1500
 Temperature of fluid at top face (T top):               1223.1500
 ------------------------------------------------------------------------------------
 Heat transfer coefficient at left face (H left):          50.0000
 Heat transfer coefficient at right face (H right):        50.0000
 Heat transfer coefficient at bottom face (H bottom):       8.0000
 Heat transfer coefficient at top face (H top):           150.0000
 ====================================================================================


 ====================================================================================

                       STAGE                2/  5
                       START Time:      1140.0000
                       END Time:        3060.0000
                       Iterations:             1097

 ====================================================================================
 Temperature of fluid at left face (T left):             1423.1500
 Temperature of fluid at right face (T right):           1423.1500
 Temperature of fluid at bottom face (T bottom):         1423.1500
 Temperature of fluid at top face (T top):               1423.1500
 ------------------------------------------------------------------------------------
 Heat transfer coefficient at left face (H left):          50.0000
 Heat transfer coefficient at right face (H right):        50.0000
 Heat transfer coefficient at bottom face (H bottom):       8.0000
 Heat transfer coefficient at top face (H top):           150.0000
 ====================================================================================


 ====================================================================================

                       STAGE                3/  5
                       START Time:      3060.0000
                       END Time:        4980.0000
                       Iterations:             1097

 ====================================================================================
 Temperature of fluid at left face (T left):             1513.1500
 Temperature of fluid at right face (T right):           1513.1500
 Temperature of fluid at bottom face (T bottom):         1513.1500
 Temperature of fluid at top face (T top):               1513.1500
 ------------------------------------------------------------------------------------
 Heat transfer coefficient at left face (H left):          50.0000
 Heat transfer coefficient at right face (H right):        50.0000
 Heat transfer coefficient at bottom face (H bottom):       8.0000
 Heat transfer coefficient at top face (H top):           150.0000
 ====================================================================================


 ====================================================================================

                       STAGE                4/  5
                       START Time:      4980.0000
                       END Time:        8400.0000
                       Iterations:             1097

 ====================================================================================
 Temperature of fluid at left face (T left):             1503.1500
 Temperature of fluid at right face (T right):           1503.1500
 Temperature of fluid at bottom face (T bottom):         1503.1500
 Temperature of fluid at top face (T top):               1523.1500
 ------------------------------------------------------------------------------------
 Heat transfer coefficient at left face (H left):          50.0000
 Heat transfer coefficient at right face (H right):        50.0000
 Heat transfer coefficient at bottom face (H bottom):       8.0000
 Heat transfer coefficient at top face (H top):           150.0000
 ====================================================================================


 ====================================================================================

                       STAGE                5/  5
                       START Time:      8400.0000
                       END Time:       18400.0000
                       Iterations:             1097

 ====================================================================================
 Temperature of fluid at left face (T left):             1393.1500
 Temperature of fluid at right face (T right):           1393.1500
 Temperature of fluid at bottom face (T bottom):         1393.1500
 Temperature of fluid at top face (T top):               1433.1500
 ------------------------------------------------------------------------------------
 Heat transfer coefficient at left face (H left):          50.0000
 Heat transfer coefficient at right face (H right):        50.0000
 Heat transfer coefficient at bottom face (H bottom):       8.0000
 Heat transfer coefficient at top face (H top):           150.0000
 ====================================================================================


 SOLUTION of LINEAR SYSTEM: TDMA (tri-diagonal matrix algorithm)
      ADI approach employed in solution.
 Tolerance:       0.0010

 ====================================================================================
                    Calculation Results
 Current time:    13600.000000000000       seconds
 Maximum Temperature :    1426.5349066842932
 Minimum Temperature :    1397.3442411649098
 Average(algebraic, non-weigthed) Temperature :    1412.9087428195139
 ====================================================================================
            I           J        X(m)        Y(m)        T(K)  Cp(J/kg.K) K(W/sq-m.K)
 ====================================================================================
            1           1      0.0000      0.0000   1397.3442    703.0000     48.5837
            1           2      0.0000      0.0143   1397.9880    703.0000     48.6188
            1           3      0.0000      0.0286   1398.6576    703.0000     48.6554
            1           4      0.0000      0.0429   1399.3586    703.0000     48.6938
            1           5      0.0000      0.0571   1400.0985    703.0000     48.7343
            1           6      0.0000      0.0714   1400.8876    703.0000     48.7777
            1           7      0.0000      0.0857   1401.7392    703.0000     48.8245
            1           8      0.0000      0.1000   1402.6717    703.0000     48.8759
            1           9      0.0000      0.1143   1403.7097    703.0000     48.9333
            1          10      0.0000      0.1286   1404.8867    703.0000     48.9985
            1          11      0.0000      0.1429   1406.2490    703.0000     49.0742
            1          12      0.0000      0.1571   1407.8610    703.0000     49.1640
            1          13      0.0000      0.1714   1409.8133    703.0000     49.2733
            1          14      0.0000      0.1857   1412.2342    703.0000     49.4094
            1          15      0.0000      0.2000   1415.3073    703.0000     49.5833
            2           1      0.0714      0.0000   1400.3789    703.0000     48.7497
            2           2      0.0714      0.0143   1401.4815    703.0000     48.8103
            2           3      0.0714      0.0286   1402.6126    703.0000     48.8727
            2           4      0.0714      0.0429   1403.7775    703.0000     48.9370
            2           5      0.0714      0.0571   1404.9826    703.0000     49.0038
            2           6      0.0714      0.0714   1406.2360    703.0000     49.0734
            2           7      0.0714      0.0857   1407.5468    703.0000     49.1465
            2           8      0.0714      0.1000   1408.9259    703.0000     49.2236
            2           9      0.0714      0.1143   1410.3857    703.0000     49.3054
            2          10      0.0714      0.1286   1411.9397    703.0000     49.3928
            2          11      0.0714      0.1429   1413.6026    703.0000     49.4867
            2          12      0.0714      0.1571   1415.3891    703.0000     49.5879
            2          13      0.0714      0.1714   1417.3124    703.0000     49.6974
            2          14      0.0714      0.1857   1419.3818    703.0000     49.8156
            2          15      0.0714      0.2000   1421.5981    703.0000     49.9428
            3           1      0.1429      0.0000   1402.3988    703.0000     48.8609
            3           2      0.1429      0.0143   1403.7985    703.0000     48.9382
            3           3      0.1429      0.0286   1405.2093    703.0000     49.0164
            3           4      0.1429      0.0429   1406.6337    703.0000     49.0956
            3           5      0.1429      0.0571   1408.0743    703.0000     49.1759
            3           6      0.1429      0.0714   1409.5344    703.0000     49.2576
            3           7      0.1429      0.0857   1411.0175    703.0000     49.3409
            3           8      0.1429      0.1000   1412.5273    703.0000     49.4259
            3           9      0.1429      0.1143   1414.0677    703.0000     49.5130
            3          10      0.1429      0.1286   1415.6425    703.0000     49.6023
            3          11      0.1429      0.1429   1417.2547    703.0000     49.6941
            3          12      0.1429      0.1571   1418.9069    703.0000     49.7884
            3          13      0.1429      0.1714   1420.6001    703.0000     49.8855
            3          14      0.1429      0.1857   1422.3334    703.0000     49.9852
            3          15      0.1429      0.2000   1424.1039    703.0000     50.0874
            4           1      0.2143      0.0000   1403.6295    703.0000     48.9289
            4           2      0.2143      0.0143   1405.2070    703.0000     49.0163
            4           3      0.2143      0.0286   1406.7779    703.0000     49.1036
            4           4      0.2143      0.0429   1408.3422    703.0000     49.1909
            4           5      0.2143      0.0571   1409.9002    703.0000     49.2782
            4           6      0.2143      0.0714   1411.4525    703.0000     49.3654
            4           7      0.2143      0.0857   1412.9998    703.0000     49.4526
            4           8      0.2143      0.1000   1414.5432    703.0000     49.5399
            4           9      0.2143      0.1143   1416.0839    703.0000     49.6274
            4          10      0.2143      0.1286   1417.6229    703.0000     49.7151
            4          11      0.2143      0.1429   1419.1615    703.0000     49.8030
            4          12      0.2143      0.1571   1420.7007    703.0000     49.8912
            4          13      0.2143      0.1714   1422.2411    703.0000     49.9799
            4          14      0.2143      0.1857   1423.7831    703.0000     50.0689
            4          15      0.2143      0.2000   1425.3267    703.0000     50.1582
            5           1      0.2857      0.0000   1404.3457    703.0000     48.9685
            5           2      0.2857      0.0143   1406.0256    703.0000     49.0617
            5           3      0.2857      0.0286   1407.6864    703.0000     49.1543
            5           4      0.2857      0.0429   1409.3267    703.0000     49.2460
            5           5      0.2857      0.0571   1410.9454    703.0000     49.3369
            5           6      0.2857      0.0714   1412.5418    703.0000     49.4268
            5           7      0.2857      0.0857   1414.1156    703.0000     49.5157
            5           8      0.2857      0.1000   1415.6669    703.0000     49.6037
            5           9      0.2857      0.1143   1417.1962    703.0000     49.6907
            5          10      0.2857      0.1286   1418.7042    703.0000     49.7768
            5          11      0.2857      0.1429   1420.1921    703.0000     49.8621
            5          12      0.2857      0.1571   1421.6611    703.0000     49.9465
            5          13      0.2857      0.1714   1423.1129    703.0000     50.0301
            5          14      0.2857      0.1857   1424.5491    703.0000     50.1132
            5          15      0.2857      0.2000   1425.9715    703.0000     50.1957
            6           1      0.3571      0.0000   1404.7446    703.0000     48.9906
            6           2      0.3571      0.0143   1406.4813    703.0000     49.0871
            6           3      0.3571      0.0286   1408.1913    703.0000     49.1825
            6           4      0.3571      0.0429   1409.8724    703.0000     49.2766
            6           5      0.3571      0.0571   1411.5229    703.0000     49.3693
            6           6      0.3571      0.0714   1413.1414    703.0000     49.4606
            6           7      0.3571      0.0857   1414.7273    703.0000     49.5504
            6           8      0.3571      0.1000   1416.2802    703.0000     49.6386
            6           9      0.3571      0.1143   1417.8005    703.0000     49.7252
            6          10      0.3571      0.1286   1419.2890    703.0000     49.8103
            6          11      0.3571      0.1429   1420.7471    703.0000     49.8939
            6          12      0.3571      0.1571   1422.1764    703.0000     49.9761
            6          13      0.3571      0.1714   1423.5791    703.0000     50.0571
            6          14      0.3571      0.1857   1424.9578    703.0000     50.1369
            6          15      0.3571      0.2000   1426.3153    703.0000     50.2156
            7           1      0.4286      0.0000   1404.9441    703.0000     49.0017
            7           2      0.4286      0.0143   1406.7090    703.0000     49.0998
            7           3      0.4286      0.0286   1408.4435    703.0000     49.1966
            7           4      0.4286      0.0429   1410.1447    703.0000     49.2919
            7           5      0.4286      0.0571   1411.8106    703.0000     49.3855
            7           6      0.4286      0.0714   1413.4397    703.0000     49.4775
            7           7      0.4286      0.0857   1415.0310    703.0000     49.5676
            7           8      0.4286      0.1000   1416.5841    703.0000     49.6559
            7           9      0.4286      0.1143   1418.0994    703.0000     49.7423
            7          10      0.4286      0.1286   1419.5777    703.0000     49.8268
            7          11      0.4286      0.1429   1421.0206    703.0000     49.9096
            7          12      0.4286      0.1571   1422.4299    703.0000     49.9907
            7          13      0.4286      0.1714   1423.8083    703.0000     50.0703
            7          14      0.4286      0.1857   1425.1585    703.0000     50.1485
            7          15      0.4286      0.2000   1426.4842    703.0000     50.2255
            8           1      0.5000      0.0000   1405.0044    703.0000     49.0050
            8           2      0.5000      0.0143   1406.7780    703.0000     49.1036
            8           3      0.5000      0.0286   1408.5198    703.0000     49.2008
            8           4      0.5000      0.0429   1410.2271    703.0000     49.2965
            8           5      0.5000      0.0571   1411.8976    703.0000     49.3904
            8           6      0.5000      0.0714   1413.5298    703.0000     49.4826
            8           7      0.5000      0.0857   1415.1226    703.0000     49.5728
            8           8      0.5000      0.1000   1416.6758    703.0000     49.6611
            8           9      0.5000      0.1143   1418.1895    703.0000     49.7474
            8          10      0.5000      0.1286   1419.6647    703.0000     49.8318
            8          11      0.5000      0.1429   1421.1029    703.0000     49.9144
            8          12      0.5000      0.1571   1422.5062    703.0000     49.9951
            8          13      0.5000      0.1714   1423.8772    703.0000     50.0743
            8          14      0.5000      0.1857   1425.2189    703.0000     50.1520
            8          15      0.5000      0.2000   1426.5349    703.0000     50.2284
            9           1      0.5714      0.0000   1404.9441    703.0000     49.0017
            9           2      0.5714      0.0143   1406.7091    703.0000     49.0998
            9           3      0.5714      0.0286   1408.4436    703.0000     49.1966
            9           4      0.5714      0.0429   1410.1448    703.0000     49.2919
            9           5      0.5714      0.0571   1411.8107    703.0000     49.3855
            9           6      0.5714      0.0714   1413.4398    703.0000     49.4775
            9           7      0.5714      0.0857   1415.0310    703.0000     49.5676
            9           8      0.5714      0.1000   1416.5842    703.0000     49.6559
            9           9      0.5714      0.1143   1418.0995    703.0000     49.7423
            9          10      0.5714      0.1286   1419.5778    703.0000     49.8268
            9          11      0.5714      0.1429   1421.0207    703.0000     49.9096
            9          12      0.5714      0.1571   1422.4300    703.0000     49.9908
            9          13      0.5714      0.1714   1423.8083    703.0000     50.0703
            9          14      0.5714      0.1857   1425.1586    703.0000     50.1485
            9          15      0.5714      0.2000   1426.4842    703.0000     50.2255
           10           1      0.6429      0.0000   1404.7447    703.0000     48.9906
           10           2      0.6429      0.0143   1406.4814    703.0000     49.0871
           10           3      0.6429      0.0286   1408.1915    703.0000     49.1825
           10           4      0.6429      0.0429   1409.8726    703.0000     49.2766
           10           5      0.6429      0.0571   1411.5231    703.0000     49.3694
           10           6      0.6429      0.0714   1413.1416    703.0000     49.4606
           10           7      0.6429      0.0857   1414.7274    703.0000     49.5504
           10           8      0.6429      0.1000   1416.2804    703.0000     49.6386
           10           9      0.6429      0.1143   1417.8007    703.0000     49.7252
           10          10      0.6429      0.1286   1419.2892    703.0000     49.8103
           10          11      0.6429      0.1429   1420.7472    703.0000     49.8939
           10          12      0.6429      0.1571   1422.1765    703.0000     49.9761
           10          13      0.6429      0.1714   1423.5793    703.0000     50.0571
           10          14      0.6429      0.1857   1424.9580    703.0000     50.1369
           10          15      0.6429      0.2000   1426.3155    703.0000     50.2156
           11           1      0.7143      0.0000   1404.3460    703.0000     48.9685
           11           2      0.7143      0.0143   1406.0259    703.0000     49.0618
           11           3      0.7143      0.0286   1407.6868    703.0000     49.1543
           11           4      0.7143      0.0429   1409.3271    703.0000     49.2460
           11           5      0.7143      0.0571   1410.9458    703.0000     49.3369
           11           6      0.7143      0.0714   1412.5422    703.0000     49.4268
           11           7      0.7143      0.0857   1414.1160    703.0000     49.5157
           11           8      0.7143      0.1000   1415.6673    703.0000     49.6037
           11           9      0.7143      0.1143   1417.1966    703.0000     49.6908
           11          10      0.7143      0.1286   1418.7046    703.0000     49.7769
           11          11      0.7143      0.1429   1420.1924    703.0000     49.8621
           11          12      0.7143      0.1571   1421.6615    703.0000     49.9465
           11          13      0.7143      0.1714   1423.1132    703.0000     50.0302
           11          14      0.7143      0.1857   1424.5493    703.0000     50.1132
           11          15      0.7143      0.2000   1425.9717    703.0000     50.1957
           12           1      0.7857      0.0000   1403.6300    703.0000     48.9289
           12           2      0.7857      0.0143   1405.2075    703.0000     49.0163
           12           3      0.7857      0.0286   1406.7785    703.0000     49.1036
           12           4      0.7857      0.0429   1408.3429    703.0000     49.1909
           12           5      0.7857      0.0571   1409.9009    703.0000     49.2782
           12           6      0.7857      0.0714   1411.4532    703.0000     49.3654
           12           7      0.7857      0.0857   1413.0006    703.0000     49.4527
           12           8      0.7857      0.1000   1414.5440    703.0000     49.5400
           12           9      0.7857      0.1143   1416.0846    703.0000     49.6274
           12          10      0.7857      0.1286   1417.6236    703.0000     49.7151
           12          11      0.7857      0.1429   1419.1622    703.0000     49.8030
           12          12      0.7857      0.1571   1420.7013    703.0000     49.8913
           12          13      0.7857      0.1714   1422.2417    703.0000     49.9799
           12          14      0.7857      0.1857   1423.7836    703.0000     50.0689
           12          15      0.7857      0.2000   1425.3271    703.0000     50.1583
           13           1      0.8571      0.0000   1402.3995    703.0000     48.8609
           13           2      0.8571      0.0143   1403.7993    703.0000     48.9382
           13           3      0.8571      0.0286   1405.2103    703.0000     49.0164
           13           4      0.8571      0.0429   1406.6347    703.0000     49.0956
           13           5      0.8571      0.0571   1408.0754    703.0000     49.1760
           13           6      0.8571      0.0714   1409.5355    703.0000     49.2577
           13           7      0.8571      0.0857   1411.0186    703.0000     49.3410
           13           8      0.8571      0.1000   1412.5284    703.0000     49.4260
           13           9      0.8571      0.1143   1414.0688    703.0000     49.5131
           13          10      0.8571      0.1286   1415.6435    703.0000     49.6024
           13          11      0.8571      0.1429   1417.2558    703.0000     49.6941
           13          12      0.8571      0.1571   1418.9079    703.0000     49.7885
           13          13      0.8571      0.1714   1420.6009    703.0000     49.8855
           13          14      0.8571      0.1857   1422.3342    703.0000     49.9852
           13          15      0.8571      0.2000   1424.1045    703.0000     50.0874
           14           1      0.9286      0.0000   1400.3794    703.0000     48.7498
           14           2      0.9286      0.0143   1401.4821    703.0000     48.8104
           14           3      0.9286      0.0286   1402.6132    703.0000     48.8727
           14           4      0.9286      0.0429   1403.7781    703.0000     48.9371
           14           5      0.9286      0.0571   1404.9833    703.0000     49.0038
           14           6      0.9286      0.0714   1406.2367    703.0000     49.0735
           14           7      0.9286      0.0857   1407.5475    703.0000     49.1465
           14           8      0.9286      0.1000   1408.9267    703.0000     49.2236
           14           9      0.9286      0.1143   1410.3864    703.0000     49.3054
           14          10      0.9286      0.1286   1411.9404    703.0000     49.3929
           14          11      0.9286      0.1429   1413.6033    703.0000     49.4867
           14          12      0.9286      0.1571   1415.3897    703.0000     49.5880
           14          13      0.9286      0.1714   1417.3129    703.0000     49.6974
           14          14      0.9286      0.1857   1419.3822    703.0000     49.8156
           14          15      0.9286      0.2000   1421.5985    703.0000     49.9429
           15           1      1.0000      0.0000   1397.3444    703.0000     48.5837
           15           2      1.0000      0.0143   1397.9882    703.0000     48.6189
           15           3      1.0000      0.0286   1398.6578    703.0000     48.6554
           15           4      1.0000      0.0429   1399.3588    703.0000     48.6938
           15           5      1.0000      0.0571   1400.0988    703.0000     48.7344
           15           6      1.0000      0.0714   1400.8878    703.0000     48.7777
           15           7      1.0000      0.0857   1401.7394    703.0000     48.8245
           15           8      1.0000      0.1000   1402.6719    703.0000     48.8760
           15           9      1.0000      0.1143   1403.7099    703.0000     48.9333
           15          10      1.0000      0.1286   1404.8869    703.0000     48.9985
           15          11      1.0000      0.1429   1406.2492    703.0000     49.0742
           15          12      1.0000      0.1571   1407.8612    703.0000     49.1640
           15          13      1.0000      0.1714   1409.8134    703.0000     49.2733
           15          14      1.0000      0.1857   1412.2343    703.0000     49.4094
           15          15      1.0000      0.2000   1415.3075    703.0000     49.5833
