 ====================================================================================
               Transient state solution for a 2D rectangular plate
                    for applications in steel reheating
                 e.g. Reheating furnaces for rolling processing
 ====================================================================================
 Author: Dickson Alves de Souza

 Based on lectures by professor Roberto Parreiras Tavares

 and book Numerical Heat Transfer and Fluid Flow
 by Suhas V. Patankar (1980)

 Federal University of Minas Gerais (UFMG)
 October 26th, 2017
 ====================================================================================
                              Input parameters:

 Lenght in X direction (meters):           1.0000
 Lenght in Y direction (meters):           0.2000
 Nodes in X direction:                         15
 Nodes in Y direction:                         15
 ====================================================================================

                       STAGE                1/  5
                       START Time:         0.0000
                       END Time:        1140.0000
                       Iterations:              895

 ====================================================================================
 Temperature of fluid at left face (T left):             1223.1500
 Temperature of fluid at right face (T right):           1223.1500
 Temperature of fluid at bottom face (T bottom):         1223.1500
 Temperature of fluid at top face (T top):               1223.1500
 ------------------------------------------------------------------------------------
 Heat transfer coefficient at left face (H left):          50.0000
 Heat transfer coefficient at right face (H right):        50.0000
 Heat transfer coefficient at bottom face (H bottom):       8.0000
 Heat transfer coefficient at top face (H top):           150.0000
 ====================================================================================


 ====================================================================================

                       STAGE                2/  5
                       START Time:      1140.0000
                       END Time:        3060.0000
                       Iterations:              895

 ====================================================================================
 Temperature of fluid at left face (T left):             1423.1500
 Temperature of fluid at right face (T right):           1423.1500
 Temperature of fluid at bottom face (T bottom):         1423.1500
 Temperature of fluid at top face (T top):               1423.1500
 ------------------------------------------------------------------------------------
 Heat transfer coefficient at left face (H left):          50.0000
 Heat transfer coefficient at right face (H right):        50.0000
 Heat transfer coefficient at bottom face (H bottom):       8.0000
 Heat transfer coefficient at top face (H top):           150.0000
 ====================================================================================


 ====================================================================================

                       STAGE                3/  5
                       START Time:      3060.0000
                       END Time:        4980.0000
                       Iterations:              895

 ====================================================================================
 Temperature of fluid at left face (T left):             1513.1500
 Temperature of fluid at right face (T right):           1513.1500
 Temperature of fluid at bottom face (T bottom):         1513.1500
 Temperature of fluid at top face (T top):               1513.1500
 ------------------------------------------------------------------------------------
 Heat transfer coefficient at left face (H left):          50.0000
 Heat transfer coefficient at right face (H right):        50.0000
 Heat transfer coefficient at bottom face (H bottom):       8.0000
 Heat transfer coefficient at top face (H top):           150.0000
 ====================================================================================


 ====================================================================================

                       STAGE                4/  5
                       START Time:      4980.0000
                       END Time:        8400.0000
                       Iterations:              895

 ====================================================================================
 Temperature of fluid at left face (T left):             1503.1500
 Temperature of fluid at right face (T right):           1503.1500
 Temperature of fluid at bottom face (T bottom):         1503.1500
 Temperature of fluid at top face (T top):               1523.1500
 ------------------------------------------------------------------------------------
 Heat transfer coefficient at left face (H left):          50.0000
 Heat transfer coefficient at right face (H right):        50.0000
 Heat transfer coefficient at bottom face (H bottom):       8.0000
 Heat transfer coefficient at top face (H top):           150.0000
 ====================================================================================


 ====================================================================================

                       STAGE                5/  5
                       START Time:      8400.0000
                       END Time:       18400.0000
                       Iterations:              895

 ====================================================================================
 Temperature of fluid at left face (T left):             1393.1500
 Temperature of fluid at right face (T right):           1393.1500
 Temperature of fluid at bottom face (T bottom):         1393.1500
 Temperature of fluid at top face (T top):               1433.1500
 ------------------------------------------------------------------------------------
 Heat transfer coefficient at left face (H left):          50.0000
 Heat transfer coefficient at right face (H right):        50.0000
 Heat transfer coefficient at bottom face (H bottom):       8.0000
 Heat transfer coefficient at top face (H top):           150.0000
 ====================================================================================


 SOLUTION of LINEAR SYSTEM: TDMA (tri-diagonal matrix algorithm)
      ADI approach employed in solution.
 Tolerance:       0.0010

 ====================================================================================
                    Calculation Results
 Current time:    10200.000000000000       seconds
 Maximum Temperature :    1444.6594967682270
 Minimum Temperature :    1404.0878182375036
 Average(algebraic, non-weigthed) Temperature :    1431.6771856195141
 ====================================================================================
            I           J        X(m)        Y(m)        T(K)  Cp(J/kg.K) K(W/sq-m.K)
 ====================================================================================
            1           1      0.0000      0.0000   1404.0878    703.0000     48.9542
            1           2      0.0000      0.0143   1405.6883    703.0000     49.0430
            1           3      0.0000      0.0286   1407.1783    703.0000     49.1259
            1           4      0.0000      0.0429   1408.5495    703.0000     49.2025
            1           5      0.0000      0.0571   1409.7989    703.0000     49.2725
            1           6      0.0000      0.0714   1410.9284    703.0000     49.3359
            1           7      0.0000      0.0857   1411.9464    703.0000     49.3932
            1           8      0.0000      0.1000   1412.8688    703.0000     49.4452
            1           9      0.0000      0.1143   1413.7209    703.0000     49.4934
            1          10      0.0000      0.1286   1414.5396    703.0000     49.5397
            1          11      0.0000      0.1429   1415.3778    703.0000     49.5873
            1          12      0.0000      0.1571   1416.3089    703.0000     49.6402
            1          13      0.0000      0.1714   1417.4356    703.0000     49.7044
            1          14      0.0000      0.1857   1418.9014    703.0000     49.7881
            1          15      0.0000      0.2000   1420.9075    703.0000     49.9031
            2           1      0.0714      0.0000   1411.9963    703.0000     49.3960
            2           2      0.0714      0.0143   1414.7437    703.0000     49.5513
            2           3      0.0714      0.0286   1417.2818    703.0000     49.6956
            2           4      0.0714      0.0429   1419.5936    703.0000     49.8277
            2           5      0.0714      0.0571   1421.6681    703.0000     49.9469
            2           6      0.0714      0.0714   1423.5001    703.0000     50.0525
            2           7      0.0714      0.0857   1425.0909    703.0000     50.1446
            2           8      0.0714      0.1000   1426.4481    703.0000     50.2234
            2           9      0.0714      0.1143   1427.5854    703.0000     50.2896
            2          10      0.0714      0.1286   1428.5231    703.0000     50.3442
            2          11      0.0714      0.1429   1429.2869    703.0000     50.3889
            2          12      0.0714      0.1571   1429.9074    703.0000     50.4252
            2          13      0.0714      0.1714   1430.4183    703.0000     50.4551
            2          14      0.0714      0.1857   1430.8537    703.0000     50.4807
            2          15      0.0714      0.2000   1431.2433    703.0000     50.5035
            3           1      0.1429      0.0000   1417.1472    703.0000     49.6879
            3           2      0.1429      0.0143   1420.6322    703.0000     49.8873
            3           3      0.1429      0.0286   1423.8243    703.0000     50.0712
            3           4      0.1429      0.0429   1426.6987    703.0000     50.2379
            3           5      0.1429      0.0571   1429.2369    703.0000     50.3860
            3           6      0.1429      0.0714   1431.4265    703.0000     50.5143
            3           7      0.1429      0.0857   1433.2615    703.0000     50.6223
            3           8      0.1429      0.1000   1434.7422    703.0000     50.7097
            3           9      0.1429      0.1143   1435.8747    703.0000     50.7767
            3          10      0.1429      0.1286   1436.6708    703.0000     50.8240
            3          11      0.1429      0.1429   1437.1479    703.0000     50.8523
            3          12      0.1429      0.1571   1437.3278    703.0000     50.8630
            3          13      0.1429      0.1714   1437.2365    703.0000     50.8576
            3          14      0.1429      0.1857   1436.9034    703.0000     50.8378
            3          15      0.1429      0.2000   1436.3603    703.0000     50.8055
            4           1      0.2143      0.0000   1420.0448    703.0000     49.8536
            4           2      0.2143      0.0143   1423.9415    703.0000     50.0780
            4           3      0.2143      0.0286   1427.4923    703.0000     50.2841
            4           4      0.2143      0.0429   1430.6677    703.0000     50.4697
            4           5      0.2143      0.0571   1433.4446    703.0000     50.6331
            4           6      0.2143      0.0714   1435.8070    703.0000     50.7727
            4           7      0.2143      0.0857   1437.7453    703.0000     50.8878
            4           8      0.2143      0.1000   1439.2570    703.0000     50.9779
            4           9      0.2143      0.1143   1440.3457    703.0000     51.0429
            4          10      0.2143      0.1286   1441.0217    703.0000     51.0834
            4          11      0.2143      0.1429   1441.3014    703.0000     51.1001
            4          12      0.2143      0.1571   1441.2068    703.0000     51.0945
            4          13      0.2143      0.1714   1440.7660    703.0000     51.0681
            4          14      0.2143      0.1857   1440.0118    703.0000     51.0230
            4          15      0.2143      0.2000   1438.9824    703.0000     50.9615
            5           1      0.2857      0.0000   1421.4930    703.0000     49.9368
            5           2      0.2857      0.0143   1425.5947    703.0000     50.1738
            5           3      0.2857      0.0286   1429.3226    703.0000     50.3910
            5           4      0.2857      0.0429   1432.6446    703.0000     50.5859
            5           5      0.2857      0.0571   1435.5356    703.0000     50.7566
            5           6      0.2857      0.0714   1437.9778    703.0000     50.9017
            5           7      0.2857      0.0857   1439.9603    703.0000     51.0199
            5           8      0.2857      0.1000   1441.4793    703.0000     51.1108
            5           9      0.2857      0.1143   1442.5381    703.0000     51.1743
            5          10      0.2857      0.1286   1443.1468    703.0000     51.2109
            5          11      0.2857      0.1429   1443.3221    703.0000     51.2215
            5          12      0.2857      0.1571   1443.0872    703.0000     51.2073
            5          13      0.2857      0.1714   1442.4717    703.0000     51.1703
            5          14      0.2857      0.1857   1441.5109    703.0000     51.1127
            5          15      0.2857      0.2000   1440.2461    703.0000     51.0370
            6           1      0.3571      0.0000   1422.1429    703.0000     49.9742
            6           2      0.3571      0.0143   1426.3365    703.0000     50.2169
            6           3      0.3571      0.0286   1430.1435    703.0000     50.4390
            6           4      0.3571      0.0429   1433.5305    703.0000     50.6381
            6           5      0.3571      0.0571   1436.4717    703.0000     50.8121
            6           6      0.3571      0.0714   1438.9483    703.0000     50.9595
            6           7      0.3571      0.0857   1440.9491    703.0000     51.0790
            6           8      0.3571      0.1000   1442.4699    703.0000     51.1702
            6           9      0.3571      0.1143   1443.5138    703.0000     51.2330
            6          10      0.3571      0.1286   1444.0910    703.0000     51.2677
            6          11      0.3571      0.1429   1444.2185    703.0000     51.2754
            6          12      0.3571      0.1571   1443.9202    703.0000     51.2574
            6          13      0.3571      0.1714   1443.2263    703.0000     51.2157
            6          14      0.3571      0.1857   1442.1736    703.0000     51.1524
            6          15      0.3571      0.2000   1440.8047    703.0000     51.0704
            7           1      0.4286      0.0000   1422.3990    703.0000     49.9890
            7           2      0.4286      0.0143   1426.6288    703.0000     50.2339
            7           3      0.4286      0.0286   1430.4667    703.0000     50.4580
            7           4      0.4286      0.0429   1433.8793    703.0000     50.6587
            7           5      0.4286      0.0571   1436.8401    703.0000     50.8340
            7           6      0.4286      0.0714   1439.3301    703.0000     50.9823
            7           7      0.4286      0.0857   1441.3379    703.0000     51.1023
            7           8      0.4286      0.1000   1442.8591    703.0000     51.1936
            7           9      0.4286      0.1143   1443.8969    703.0000     51.2560
            7          10      0.4286      0.1286   1444.4615    703.0000     51.2901
            7          11      0.4286      0.1429   1444.5700    703.0000     51.2966
            7          12      0.4286      0.1571   1444.2465    703.0000     51.2771
            7          13      0.4286      0.1714   1443.5219    703.0000     51.2335
            7          14      0.4286      0.1857   1442.4331    703.0000     51.1680
            7          15      0.4286      0.2000   1441.0234    703.0000     51.0835
            8           1      0.5000      0.0000   1422.4643    703.0000     49.9927
            8           2      0.5000      0.0143   1426.7033    703.0000     50.2382
            8           3      0.5000      0.0286   1430.5492    703.0000     50.4628
            8           4      0.5000      0.0429   1433.9683    703.0000     50.6640
            8           5      0.5000      0.0571   1436.9341    703.0000     50.8396
            8           6      0.5000      0.0714   1439.4275    703.0000     50.9881
            8           7      0.5000      0.0857   1441.4370    703.0000     51.1083
            8           8      0.5000      0.1000   1442.9584    703.0000     51.1996
            8           9      0.5000      0.1143   1443.9946    703.0000     51.2619
            8          10      0.5000      0.1286   1444.5559    703.0000     51.2958
            8          11      0.5000      0.1429   1444.6595    703.0000     51.3020
            8          12      0.5000      0.1571   1444.3296    703.0000     51.2821
            8          13      0.5000      0.1714   1443.5971    703.0000     51.2380
            8          14      0.5000      0.1857   1442.4992    703.0000     51.1720
            8          15      0.5000      0.2000   1441.0790    703.0000     51.0868
            9           1      0.5714      0.0000   1422.3990    703.0000     49.9890
            9           2      0.5714      0.0143   1426.6288    703.0000     50.2339
            9           3      0.5714      0.0286   1430.4668    703.0000     50.4580
            9           4      0.5714      0.0429   1433.8793    703.0000     50.6587
            9           5      0.5714      0.0571   1436.8401    703.0000     50.8340
            9           6      0.5714      0.0714   1439.3302    703.0000     50.9823
            9           7      0.5714      0.0857   1441.3379    703.0000     51.1023
            9           8      0.5714      0.1000   1442.8592    703.0000     51.1936
            9           9      0.5714      0.1143   1443.8970    703.0000     51.2561
            9          10      0.5714      0.1286   1444.4615    703.0000     51.2901
            9          11      0.5714      0.1429   1444.5700    703.0000     51.2966
            9          12      0.5714      0.1571   1444.2466    703.0000     51.2771
            9          13      0.5714      0.1714   1443.5219    703.0000     51.2335
            9          14      0.5714      0.1857   1442.4331    703.0000     51.1680
            9          15      0.5714      0.2000   1441.0234    703.0000     51.0835
           10           1      0.6429      0.0000   1422.1431    703.0000     49.9742
           10           2      0.6429      0.0143   1426.3367    703.0000     50.2169
           10           3      0.6429      0.0286   1430.1436    703.0000     50.4390
           10           4      0.6429      0.0429   1433.5306    703.0000     50.6381
           10           5      0.6429      0.0571   1436.4718    703.0000     50.8122
           10           6      0.6429      0.0714   1438.9485    703.0000     50.9595
           10           7      0.6429      0.0857   1440.9493    703.0000     51.0790
           10           8      0.6429      0.1000   1442.4701    703.0000     51.1702
           10           9      0.6429      0.1143   1443.5140    703.0000     51.2330
           10          10      0.6429      0.1286   1444.0912    703.0000     51.2678
           10          11      0.6429      0.1429   1444.2187    703.0000     51.2754
           10          12      0.6429      0.1571   1443.9203    703.0000     51.2575
           10          13      0.6429      0.1714   1443.2264    703.0000     51.2157
           10          14      0.6429      0.1857   1442.1738    703.0000     51.1525
           10          15      0.6429      0.2000   1440.8048    703.0000     51.0704
           11           1      0.7143      0.0000   1421.4933    703.0000     49.9368
           11           2      0.7143      0.0143   1425.5951    703.0000     50.1738
           11           3      0.7143      0.0286   1429.3230    703.0000     50.3910
           11           4      0.7143      0.0429   1432.6450    703.0000     50.5859
           11           5      0.7143      0.0571   1435.5361    703.0000     50.7567
           11           6      0.7143      0.0714   1437.9782    703.0000     50.9017
           11           7      0.7143      0.0857   1439.9607    703.0000     51.0199
           11           8      0.7143      0.1000   1441.4798    703.0000     51.1108
           11           9      0.7143      0.1143   1442.5386    703.0000     51.1744
           11          10      0.7143      0.1286   1443.1473    703.0000     51.2109
           11          11      0.7143      0.1429   1443.3225    703.0000     51.2215
           11          12      0.7143      0.1571   1443.0876    703.0000     51.2073
           11          13      0.7143      0.1714   1442.4720    703.0000     51.1704
           11          14      0.7143      0.1857   1441.5112    703.0000     51.1127
           11          15      0.7143      0.2000   1440.2464    703.0000     51.0370
           12           1      0.7857      0.0000   1420.0455    703.0000     49.8536
           12           2      0.7857      0.0143   1423.9423    703.0000     50.0781
           12           3      0.7857      0.0286   1427.4932    703.0000     50.2842
           12           4      0.7857      0.0429   1430.6686    703.0000     50.4698
           12           5      0.7857      0.0571   1433.4456    703.0000     50.6331
           12           6      0.7857      0.0714   1435.8080    703.0000     50.7728
           12           7      0.7857      0.0857   1437.7463    703.0000     50.8879
           12           8      0.7857      0.1000   1439.2580    703.0000     50.9779
           12           9      0.7857      0.1143   1440.3467    703.0000     51.0430
           12          10      0.7857      0.1286   1441.0227    703.0000     51.0834
           12          11      0.7857      0.1429   1441.3023    703.0000     51.1002
           12          12      0.7857      0.1571   1441.2077    703.0000     51.0945
           12          13      0.7857      0.1714   1440.7667    703.0000     51.0681
           12          14      0.7857      0.1857   1440.0125    703.0000     51.0230
           12          15      0.7857      0.2000   1438.9830    703.0000     50.9615
           13           1      0.8571      0.0000   1417.1484    703.0000     49.6880
           13           2      0.8571      0.0143   1420.6335    703.0000     49.8874
           13           3      0.8571      0.0286   1423.8257    703.0000     50.0713
           13           4      0.8571      0.0429   1426.7003    703.0000     50.2380
           13           5      0.8571      0.0571   1429.2386    703.0000     50.3861
           13           6      0.8571      0.0714   1431.4282    703.0000     50.5144
           13           7      0.8571      0.0857   1433.2633    703.0000     50.6224
           13           8      0.8571      0.1000   1434.7439    703.0000     50.7098
           13           9      0.8571      0.1143   1435.8764    703.0000     50.7768
           13          10      0.8571      0.1286   1436.6725    703.0000     50.8241
           13          11      0.8571      0.1429   1437.1495    703.0000     50.8524
           13          12      0.8571      0.1571   1437.3293    703.0000     50.8631
           13          13      0.8571      0.1714   1437.2379    703.0000     50.8576
           13          14      0.8571      0.1857   1436.9046    703.0000     50.8378
           13          15      0.8571      0.2000   1436.3614    703.0000     50.8056
           14           1      0.9286      0.0000   1411.9971    703.0000     49.3960
           14           2      0.9286      0.0143   1414.7446    703.0000     49.5514
           14           3      0.9286      0.0286   1417.2828    703.0000     49.6957
           14           4      0.9286      0.0429   1419.5947    703.0000     49.8278
           14           5      0.9286      0.0571   1421.6693    703.0000     49.9469
           14           6      0.9286      0.0714   1423.5014    703.0000     50.0526
           14           7      0.9286      0.0857   1425.0922    703.0000     50.1446
           14           8      0.9286      0.1000   1426.4493    703.0000     50.2234
           14           9      0.9286      0.1143   1427.5867    703.0000     50.2896
           14          10      0.9286      0.1286   1428.5243    703.0000     50.3443
           14          11      0.9286      0.1429   1429.2880    703.0000     50.3889
           14          12      0.9286      0.1571   1429.9084    703.0000     50.4252
           14          13      0.9286      0.1714   1430.4193    703.0000     50.4552
           14          14      0.9286      0.1857   1430.8545    703.0000     50.4807
           14          15      0.9286      0.2000   1431.2440    703.0000     50.5036
           15           1      1.0000      0.0000   1404.0881    703.0000     48.9542
           15           2      1.0000      0.0143   1405.6887    703.0000     49.0430
           15           3      1.0000      0.0286   1407.1787    703.0000     49.1259
           15           4      1.0000      0.0429   1408.5500    703.0000     49.2025
           15           5      1.0000      0.0571   1409.7994    703.0000     49.2725
           15           6      1.0000      0.0714   1410.9289    703.0000     49.3359
           15           7      1.0000      0.0857   1411.9469    703.0000     49.3932
           15           8      1.0000      0.1000   1412.8693    703.0000     49.4453
           15           9      1.0000      0.1143   1413.7213    703.0000     49.4934
           15          10      1.0000      0.1286   1414.5401    703.0000     49.5398
           15          11      1.0000      0.1429   1415.3782    703.0000     49.5873
           15          12      1.0000      0.1571   1416.3093    703.0000     49.6402
           15          13      1.0000      0.1714   1417.4360    703.0000     49.7044
           15          14      1.0000      0.1857   1418.9017    703.0000     49.7881
           15          15      1.0000      0.2000   1420.9077    703.0000     49.9031
