 ====================================================================================
               Transient state solution for a 2D rectangular plate
                    for applications in steel reheating
                 e.g. Reheating furnaces for rolling processing
 ====================================================================================
 Author: Dickson Alves de Souza

 Based on lectures by professor Roberto Parreiras Tavares

 and book Numerical Heat Transfer and Fluid Flow
 by Suhas V. Patankar (1980)

 Federal University of Minas Gerais (UFMG)
 October 26th, 2017
 ====================================================================================
                              Input parameters:

 Lenght in X direction (meters):           1.0000
 Lenght in Y direction (meters):           0.2000
 Nodes in X direction:                         15
 Nodes in Y direction:                         15
 ====================================================================================

                       STAGE                1/  5
                       START Time:         0.0000
                       END Time:        1140.0000
                       Iterations:             1181

 ====================================================================================
 Temperature of fluid at left face (T left):             1223.1500
 Temperature of fluid at right face (T right):           1223.1500
 Temperature of fluid at bottom face (T bottom):         1223.1500
 Temperature of fluid at top face (T top):               1223.1500
 ------------------------------------------------------------------------------------
 Heat transfer coefficient at left face (H left):          50.0000
 Heat transfer coefficient at right face (H right):        50.0000
 Heat transfer coefficient at bottom face (H bottom):       8.0000
 Heat transfer coefficient at top face (H top):           150.0000
 ====================================================================================


 ====================================================================================

                       STAGE                2/  5
                       START Time:      1140.0000
                       END Time:        3060.0000
                       Iterations:             1181

 ====================================================================================
 Temperature of fluid at left face (T left):             1423.1500
 Temperature of fluid at right face (T right):           1423.1500
 Temperature of fluid at bottom face (T bottom):         1423.1500
 Temperature of fluid at top face (T top):               1423.1500
 ------------------------------------------------------------------------------------
 Heat transfer coefficient at left face (H left):          50.0000
 Heat transfer coefficient at right face (H right):        50.0000
 Heat transfer coefficient at bottom face (H bottom):       8.0000
 Heat transfer coefficient at top face (H top):           150.0000
 ====================================================================================


 ====================================================================================

                       STAGE                3/  5
                       START Time:      3060.0000
                       END Time:        4980.0000
                       Iterations:             1181

 ====================================================================================
 Temperature of fluid at left face (T left):             1513.1500
 Temperature of fluid at right face (T right):           1513.1500
 Temperature of fluid at bottom face (T bottom):         1513.1500
 Temperature of fluid at top face (T top):               1513.1500
 ------------------------------------------------------------------------------------
 Heat transfer coefficient at left face (H left):          50.0000
 Heat transfer coefficient at right face (H right):        50.0000
 Heat transfer coefficient at bottom face (H bottom):       8.0000
 Heat transfer coefficient at top face (H top):           150.0000
 ====================================================================================


 ====================================================================================

                       STAGE                4/  5
                       START Time:      4980.0000
                       END Time:        8400.0000
                       Iterations:             1181

 ====================================================================================
 Temperature of fluid at left face (T left):             1503.1500
 Temperature of fluid at right face (T right):           1503.1500
 Temperature of fluid at bottom face (T bottom):         1503.1500
 Temperature of fluid at top face (T top):               1523.1500
 ------------------------------------------------------------------------------------
 Heat transfer coefficient at left face (H left):          50.0000
 Heat transfer coefficient at right face (H right):        50.0000
 Heat transfer coefficient at bottom face (H bottom):       8.0000
 Heat transfer coefficient at top face (H top):           150.0000
 ====================================================================================


 ====================================================================================

                       STAGE                5/  5
                       START Time:      8400.0000
                       END Time:       18400.0000
                       Iterations:             1181

 ====================================================================================
 Temperature of fluid at left face (T left):             1393.1500
 Temperature of fluid at right face (T right):           1393.1500
 Temperature of fluid at bottom face (T bottom):         1393.1500
 Temperature of fluid at top face (T top):               1433.1500
 ------------------------------------------------------------------------------------
 Heat transfer coefficient at left face (H left):          50.0000
 Heat transfer coefficient at right face (H right):        50.0000
 Heat transfer coefficient at bottom face (H bottom):       8.0000
 Heat transfer coefficient at top face (H top):           150.0000
 ====================================================================================


 SOLUTION of LINEAR SYSTEM: TDMA (tri-diagonal matrix algorithm)
      ADI approach employed in solution.
 Tolerance:       0.0010

 ====================================================================================
                    Calculation Results
 Current time:    15600.000000000000       seconds
 Maximum Temperature :    1425.5111982038529
 Minimum Temperature :    1397.0169315965557
 Average(algebraic, non-weigthed) Temperature :    1411.7543267687263
 ====================================================================================
            I           J        X(m)        Y(m)        T(K)  Cp(J/kg.K) K(W/sq-m.K)
 ====================================================================================
            1           1      0.0000      0.0000   1397.0169    703.0000     48.5659
            1           2      0.0000      0.0143   1397.6142    703.0000     48.5984
            1           3      0.0000      0.0286   1398.2439    703.0000     48.6328
            1           4      0.0000      0.0429   1398.9123    703.0000     48.6694
            1           5      0.0000      0.0571   1399.6274    703.0000     48.7085
            1           6      0.0000      0.0714   1400.3999    703.0000     48.7509
            1           7      0.0000      0.0857   1401.2435    703.0000     48.7972
            1           8      0.0000      0.1000   1402.1766    703.0000     48.8486
            1           9      0.0000      0.1143   1403.2237    703.0000     48.9064
            1          10      0.0000      0.1286   1404.4183    703.0000     48.9725
            1          11      0.0000      0.1429   1405.8063    703.0000     49.0495
            1          12      0.0000      0.1571   1407.4516    703.0000     49.1412
            1          13      0.0000      0.1714   1409.4441    703.0000     49.2526
            1          14      0.0000      0.1857   1411.9114    703.0000     49.3912
            1          15      0.0000      0.2000   1415.0364    703.0000     49.5679
            2           1      0.0714      0.0000   1399.7970    703.0000     48.7178
            2           2      0.0714      0.0143   1400.8171    703.0000     48.7738
            2           3      0.0714      0.0286   1401.8774    703.0000     48.8321
            2           4      0.0714      0.0429   1402.9845    703.0000     48.8932
            2           5      0.0714      0.0571   1404.1459    703.0000     48.9574
            2           6      0.0714      0.0714   1405.3701    703.0000     49.0253
            2           7      0.0714      0.0857   1406.6669    703.0000     49.0974
            2           8      0.0714      0.1000   1408.0473    703.0000     49.1744
            2           9      0.0714      0.1143   1409.5236    703.0000     49.2570
            2          10      0.0714      0.1286   1411.1090    703.0000     49.3460
            2          11      0.0714      0.1429   1412.8175    703.0000     49.4423
            2          12      0.0714      0.1571   1414.6630    703.0000     49.5467
            2          13      0.0714      0.1714   1416.6575    703.0000     49.6600
            2          14      0.0714      0.1857   1418.8091    703.0000     49.7828
            2          15      0.0714      0.2000   1421.1170    703.0000     49.9152
            3           1      0.1429      0.0000   1401.6011    703.0000     48.8169
            3           2      0.1429      0.0143   1402.8877    703.0000     48.8879
            3           3      0.1429      0.0286   1404.2017    703.0000     48.9605
            3           4      0.1429      0.0429   1405.5471    703.0000     49.0351
            3           5      0.1429      0.0571   1406.9279    703.0000     49.1120
            3           6      0.1429      0.0714   1408.3482    703.0000     49.1912
            3           7      0.1429      0.0857   1409.8123    703.0000     49.2732
            3           8      0.1429      0.1000   1411.3240    703.0000     49.3581
            3           9      0.1429      0.1143   1412.8871    703.0000     49.4463
            3          10      0.1429      0.1286   1414.5048    703.0000     49.5378
            3          11      0.1429      0.1429   1416.1795    703.0000     49.6328
            3          12      0.1429      0.1571   1417.9124    703.0000     49.7316
            3          13      0.1429      0.1714   1419.7029    703.0000     49.8340
            3          14      0.1429      0.1857   1421.5486    703.0000     49.9400
            3          15      0.1429      0.2000   1423.4443    703.0000     50.0493
            4           1      0.2143      0.0000   1402.6615    703.0000     48.8754
            4           2      0.2143      0.0143   1404.1018    703.0000     48.9550
            4           3      0.2143      0.0286   1405.5552    703.0000     49.0356
            4           4      0.2143      0.0429   1407.0238    703.0000     49.1173
            4           5      0.2143      0.0571   1408.5093    703.0000     49.2002
            4           6      0.2143      0.0714   1410.0135    703.0000     49.2845
            4           7      0.2143      0.0857   1411.5378    703.0000     49.3702
            4           8      0.2143      0.1000   1413.0836    703.0000     49.4574
            4           9      0.2143      0.1143   1414.6517    703.0000     49.5461
            4          10      0.2143      0.1286   1416.2428    703.0000     49.6364
            4          11      0.2143      0.1429   1417.8570    703.0000     49.7284
            4          12      0.2143      0.1571   1419.4939    703.0000     49.8220
            4          13      0.2143      0.1714   1421.1524    703.0000     49.9172
            4          14      0.2143      0.1857   1422.8306    703.0000     50.0139
            4          15      0.2143      0.2000   1424.5260    703.0000     50.1118
            5           1      0.2857      0.0000   1403.2532    703.0000     48.9081
            5           2      0.2857      0.0143   1404.7783    703.0000     48.9925
            5           3      0.2857      0.0286   1406.3066    703.0000     49.0774
            5           4      0.2857      0.0429   1407.8389    703.0000     49.1628
            5           5      0.2857      0.0571   1409.3758    703.0000     49.2488
            5           6      0.2857      0.0714   1410.9179    703.0000     49.3353
            5           7      0.2857      0.0857   1412.4658    703.0000     49.4225
            5           8      0.2857      0.1000   1414.0197    703.0000     49.5103
            5           9      0.2857      0.1143   1415.5800    703.0000     49.5988
            5          10      0.2857      0.1286   1417.1467    703.0000     49.6879
            5          11      0.2857      0.1429   1418.7198    703.0000     49.7777
            5          12      0.2857      0.1571   1420.2990    703.0000     49.8682
            5          13      0.2857      0.1714   1421.8839    703.0000     49.9593
            5          14      0.2857      0.1857   1423.4737    703.0000     50.0510
            5          15      0.2857      0.2000   1425.0675    703.0000     50.1432
            6           1      0.3571      0.0000   1403.5693    703.0000     48.9255
            6           2      0.3571      0.0143   1405.1395    703.0000     49.0125
            6           3      0.3571      0.0286   1406.7070    703.0000     49.0997
            6           4      0.3571      0.0429   1408.2720    703.0000     49.1870
            6           5      0.3571      0.0571   1409.8345    703.0000     49.2745
            6           6      0.3571      0.0714   1411.3947    703.0000     49.3621
            6           7      0.3571      0.0857   1412.9526    703.0000     49.4500
            6           8      0.3571      0.1000   1414.5083    703.0000     49.5380
            6           9      0.3571      0.1143   1416.0619    703.0000     49.6262
            6          10      0.3571      0.1286   1417.6135    703.0000     49.7145
            6          11      0.3571      0.1429   1419.1632    703.0000     49.8031
            6          12      0.3571      0.1571   1420.7110    703.0000     49.8918
            6          13      0.3571      0.1714   1422.2568    703.0000     49.9808
            6          14      0.3571      0.1857   1423.8008    703.0000     50.0699
            6          15      0.3571      0.2000   1425.3427    703.0000     50.1592
            7           1      0.4286      0.0000   1403.7222    703.0000     48.9340
            7           2      0.4286      0.0143   1405.3141    703.0000     49.0222
            7           3      0.4286      0.0286   1406.9004    703.0000     49.1104
            7           4      0.4286      0.0429   1408.4809    703.0000     49.1987
            7           5      0.4286      0.0571   1410.0555    703.0000     49.2869
            7           6      0.4286      0.0714   1411.6238    703.0000     49.3750
            7           7      0.4286      0.0857   1413.1860    703.0000     49.4631
            7           8      0.4286      0.1000   1414.7421    703.0000     49.5512
            7           9      0.4286      0.1143   1416.2920    703.0000     49.6392
            7          10      0.4286      0.1286   1417.8359    703.0000     49.7272
            7          11      0.4286      0.1429   1419.3739    703.0000     49.8152
            7          12      0.4286      0.1571   1420.9064    703.0000     49.9031
            7          13      0.4286      0.1714   1422.4335    703.0000     49.9910
            7          14      0.4286      0.1857   1423.9555    703.0000     50.0788
            7          15      0.4286      0.2000   1425.4729    703.0000     50.1667
            8           1      0.5000      0.0000   1403.7677    703.0000     48.9365
            8           2      0.5000      0.0143   1405.3660    703.0000     49.0251
            8           3      0.5000      0.0286   1406.9579    703.0000     49.1136
            8           4      0.5000      0.0429   1408.5430    703.0000     49.2021
            8           5      0.5000      0.0571   1410.1210    703.0000     49.2905
            8           6      0.5000      0.0714   1411.6918    703.0000     49.3788
            8           7      0.5000      0.0857   1413.2552    703.0000     49.4671
            8           8      0.5000      0.1000   1414.8112    703.0000     49.5551
            8           9      0.5000      0.1143   1416.3600    703.0000     49.6431
            8          10      0.5000      0.1286   1417.9015    703.0000     49.7310
            8          11      0.5000      0.1429   1419.4361    703.0000     49.8187
            8          12      0.5000      0.1571   1420.9640    703.0000     49.9064
            8          13      0.5000      0.1714   1422.4855    703.0000     49.9940
            8          14      0.5000      0.1857   1424.0011    703.0000     50.0815
            8          15      0.5000      0.2000   1425.5112    703.0000     50.1689
            9           1      0.5714      0.0000   1403.7223    703.0000     48.9340
            9           2      0.5714      0.0143   1405.3142    703.0000     49.0222
            9           3      0.5714      0.0286   1406.9005    703.0000     49.1104
            9           4      0.5714      0.0429   1408.4810    703.0000     49.1987
            9           5      0.5714      0.0571   1410.0555    703.0000     49.2869
            9           6      0.5714      0.0714   1411.6239    703.0000     49.3750
            9           7      0.5714      0.0857   1413.1861    703.0000     49.4631
            9           8      0.5714      0.1000   1414.7421    703.0000     49.5512
            9           9      0.5714      0.1143   1416.2920    703.0000     49.6392
            9          10      0.5714      0.1286   1417.8359    703.0000     49.7272
            9          11      0.5714      0.1429   1419.3740    703.0000     49.8152
            9          12      0.5714      0.1571   1420.9064    703.0000     49.9031
            9          13      0.5714      0.1714   1422.4335    703.0000     49.9910
            9          14      0.5714      0.1857   1423.9556    703.0000     50.0788
            9          15      0.5714      0.2000   1425.4729    703.0000     50.1667
           10           1      0.6429      0.0000   1403.5694    703.0000     48.9255
           10           2      0.6429      0.0143   1405.1396    703.0000     49.0125
           10           3      0.6429      0.0286   1406.7071    703.0000     49.0997
           10           4      0.6429      0.0429   1408.2721    703.0000     49.1870
           10           5      0.6429      0.0571   1409.8347    703.0000     49.2745
           10           6      0.6429      0.0714   1411.3948    703.0000     49.3621
           10           7      0.6429      0.0857   1412.9527    703.0000     49.4500
           10           8      0.6429      0.1000   1414.5084    703.0000     49.5380
           10           9      0.6429      0.1143   1416.0621    703.0000     49.6262
           10          10      0.6429      0.1286   1417.6137    703.0000     49.7145
           10          11      0.6429      0.1429   1419.1633    703.0000     49.8031
           10          12      0.6429      0.1571   1420.7111    703.0000     49.8918
           10          13      0.6429      0.1714   1422.2569    703.0000     49.9808
           10          14      0.6429      0.1857   1423.8009    703.0000     50.0699
           10          15      0.6429      0.2000   1425.3428    703.0000     50.1592
           11           1      0.7143      0.0000   1403.2534    703.0000     48.9081
           11           2      0.7143      0.0143   1404.7785    703.0000     48.9925
           11           3      0.7143      0.0286   1406.3068    703.0000     49.0774
           11           4      0.7143      0.0429   1407.8392    703.0000     49.1628
           11           5      0.7143      0.0571   1409.3761    703.0000     49.2488
           11           6      0.7143      0.0714   1410.9182    703.0000     49.3353
           11           7      0.7143      0.0857   1412.4661    703.0000     49.4225
           11           8      0.7143      0.1000   1414.0200    703.0000     49.5103
           11           9      0.7143      0.1143   1415.5802    703.0000     49.5988
           11          10      0.7143      0.1286   1417.1470    703.0000     49.6879
           11          11      0.7143      0.1429   1418.7200    703.0000     49.7777
           11          12      0.7143      0.1571   1420.2992    703.0000     49.8682
           11          13      0.7143      0.1714   1421.8841    703.0000     49.9593
           11          14      0.7143      0.1857   1423.4739    703.0000     50.0510
           11          15      0.7143      0.2000   1425.0677    703.0000     50.1432
           12           1      0.7857      0.0000   1402.6619    703.0000     48.8754
           12           2      0.7857      0.0143   1404.1021    703.0000     48.9550
           12           3      0.7857      0.0286   1405.5557    703.0000     49.0356
           12           4      0.7857      0.0429   1407.0243    703.0000     49.1173
           12           5      0.7857      0.0571   1408.5098    703.0000     49.2003
           12           6      0.7857      0.0714   1410.0140    703.0000     49.2845
           12           7      0.7857      0.0857   1411.5383    703.0000     49.3702
           12           8      0.7857      0.1000   1413.0841    703.0000     49.4574
           12           9      0.7857      0.1143   1414.6522    703.0000     49.5461
           12          10      0.7857      0.1286   1416.2433    703.0000     49.6365
           12          11      0.7857      0.1429   1417.8575    703.0000     49.7285
           12          12      0.7857      0.1571   1419.4944    703.0000     49.8221
           12          13      0.7857      0.1714   1421.1527    703.0000     49.9172
           12          14      0.7857      0.1857   1422.8309    703.0000     50.0139
           12          15      0.7857      0.2000   1424.5263    703.0000     50.1119
           13           1      0.8571      0.0000   1401.6017    703.0000     48.8170
           13           2      0.8571      0.0143   1402.8884    703.0000     48.8879
           13           3      0.8571      0.0286   1404.2024    703.0000     48.9606
           13           4      0.8571      0.0429   1405.5479    703.0000     49.0352
           13           5      0.8571      0.0571   1406.9287    703.0000     49.1120
           13           6      0.8571      0.0714   1408.3491    703.0000     49.1913
           13           7      0.8571      0.0857   1409.8132    703.0000     49.2733
           13           8      0.8571      0.1000   1411.3249    703.0000     49.3582
           13           9      0.8571      0.1143   1412.8880    703.0000     49.4463
           13          10      0.8571      0.1286   1414.5057    703.0000     49.5378
           13          11      0.8571      0.1429   1416.1803    703.0000     49.6329
           13          12      0.8571      0.1571   1417.9131    703.0000     49.7316
           13          13      0.8571      0.1714   1419.7036    703.0000     49.8340
           13          14      0.8571      0.1857   1421.5492    703.0000     49.9400
           13          15      0.8571      0.2000   1423.4448    703.0000     50.0493
           14           1      0.9286      0.0000   1399.7979    703.0000     48.7179
           14           2      0.9286      0.0143   1400.8181    703.0000     48.7739
           14           3      0.9286      0.0286   1401.8786    703.0000     48.8322
           14           4      0.9286      0.0429   1402.9857    703.0000     48.8933
           14           5      0.9286      0.0571   1404.1472    703.0000     48.9575
           14           6      0.9286      0.0714   1405.3714    703.0000     49.0254
           14           7      0.9286      0.0857   1406.6683    703.0000     49.0975
           14           8      0.9286      0.1000   1408.0487    703.0000     49.1745
           14           9      0.9286      0.1143   1409.5249    703.0000     49.2571
           14          10      0.9286      0.1286   1411.1103    703.0000     49.3461
           14          11      0.9286      0.1429   1412.8188    703.0000     49.4424
           14          12      0.9286      0.1571   1414.6641    703.0000     49.5468
           14          13      0.9286      0.1714   1416.6586    703.0000     49.6601
           14          14      0.9286      0.1857   1418.8100    703.0000     49.7829
           14          15      0.9286      0.2000   1421.1178    703.0000     49.9152
           15           1      1.0000      0.0000   1397.0174    703.0000     48.5659
           15           2      1.0000      0.0143   1397.6148    703.0000     48.5985
           15           3      1.0000      0.0286   1398.2445    703.0000     48.6329
           15           4      1.0000      0.0429   1398.9130    703.0000     48.6694
           15           5      1.0000      0.0571   1399.6281    703.0000     48.7086
           15           6      1.0000      0.0714   1400.4006    703.0000     48.7509
           15           7      1.0000      0.0857   1401.2442    703.0000     48.7973
           15           8      1.0000      0.1000   1402.1773    703.0000     48.8487
           15           9      1.0000      0.1143   1403.2244    703.0000     48.9065
           15          10      1.0000      0.1286   1404.4190    703.0000     48.9726
           15          11      1.0000      0.1429   1405.8070    703.0000     49.0496
           15          12      1.0000      0.1571   1407.4522    703.0000     49.1412
           15          13      1.0000      0.1714   1409.4446    703.0000     49.2526
           15          14      1.0000      0.1857   1411.9119    703.0000     49.3912
           15          15      1.0000      0.2000   1415.0368    703.0000     49.5679
