 ====================================================================================
               Transient state solution for a 2D rectangular plate
                    for applications in steel reheating
                 e.g. Reheating furnaces for rolling processing
 ====================================================================================
 Author: Dickson Alves de Souza

 Based on lectures by professor Roberto Parreiras Tavares

 and book Numerical Heat Transfer and Fluid Flow
 by Suhas V. Patankar (1980)

 Federal University of Minas Gerais (UFMG)
 October 26th, 2017
 ====================================================================================
                              Input parameters:

 Lenght in X direction (meters):           1.0000
 Lenght in Y direction (meters):           0.2000
 Nodes in X direction:                         15
 Nodes in Y direction:                         15
 ====================================================================================

                       STAGE                1/  5
                       START Time:         0.0000
                       END Time:        1140.0000
                       Iterations:             1202

 ====================================================================================
 Temperature of fluid at left face (T left):             1223.1500
 Temperature of fluid at right face (T right):           1223.1500
 Temperature of fluid at bottom face (T bottom):         1223.1500
 Temperature of fluid at top face (T top):               1223.1500
 ------------------------------------------------------------------------------------
 Heat transfer coefficient at left face (H left):          50.0000
 Heat transfer coefficient at right face (H right):        50.0000
 Heat transfer coefficient at bottom face (H bottom):       8.0000
 Heat transfer coefficient at top face (H top):           150.0000
 ====================================================================================


 ====================================================================================

                       STAGE                2/  5
                       START Time:      1140.0000
                       END Time:        3060.0000
                       Iterations:             1202

 ====================================================================================
 Temperature of fluid at left face (T left):             1423.1500
 Temperature of fluid at right face (T right):           1423.1500
 Temperature of fluid at bottom face (T bottom):         1423.1500
 Temperature of fluid at top face (T top):               1423.1500
 ------------------------------------------------------------------------------------
 Heat transfer coefficient at left face (H left):          50.0000
 Heat transfer coefficient at right face (H right):        50.0000
 Heat transfer coefficient at bottom face (H bottom):       8.0000
 Heat transfer coefficient at top face (H top):           150.0000
 ====================================================================================


 ====================================================================================

                       STAGE                3/  5
                       START Time:      3060.0000
                       END Time:        4980.0000
                       Iterations:             1202

 ====================================================================================
 Temperature of fluid at left face (T left):             1513.1500
 Temperature of fluid at right face (T right):           1513.1500
 Temperature of fluid at bottom face (T bottom):         1513.1500
 Temperature of fluid at top face (T top):               1513.1500
 ------------------------------------------------------------------------------------
 Heat transfer coefficient at left face (H left):          50.0000
 Heat transfer coefficient at right face (H right):        50.0000
 Heat transfer coefficient at bottom face (H bottom):       8.0000
 Heat transfer coefficient at top face (H top):           150.0000
 ====================================================================================


 ====================================================================================

                       STAGE                4/  5
                       START Time:      4980.0000
                       END Time:        8400.0000
                       Iterations:             1202

 ====================================================================================
 Temperature of fluid at left face (T left):             1503.1500
 Temperature of fluid at right face (T right):           1503.1500
 Temperature of fluid at bottom face (T bottom):         1503.1500
 Temperature of fluid at top face (T top):               1523.1500
 ------------------------------------------------------------------------------------
 Heat transfer coefficient at left face (H left):          50.0000
 Heat transfer coefficient at right face (H right):        50.0000
 Heat transfer coefficient at bottom face (H bottom):       8.0000
 Heat transfer coefficient at top face (H top):           150.0000
 ====================================================================================


 ====================================================================================

                       STAGE                5/  5
                       START Time:      8400.0000
                       END Time:       18400.0000
                       Iterations:             1202

 ====================================================================================
 Temperature of fluid at left face (T left):             1393.1500
 Temperature of fluid at right face (T right):           1393.1500
 Temperature of fluid at bottom face (T bottom):         1393.1500
 Temperature of fluid at top face (T top):               1433.1500
 ------------------------------------------------------------------------------------
 Heat transfer coefficient at left face (H left):          50.0000
 Heat transfer coefficient at right face (H right):        50.0000
 Heat transfer coefficient at bottom face (H bottom):       8.0000
 Heat transfer coefficient at top face (H top):           150.0000
 ====================================================================================


 SOLUTION of LINEAR SYSTEM: TDMA (tri-diagonal matrix algorithm)
      ADI approach employed in solution.
 Tolerance:       0.0010

 ====================================================================================
                    Calculation Results
 Current time:    16200.000000000000       seconds
 Maximum Temperature :    1425.4037972450060
 Minimum Temperature :    1396.9849621309988
 Average(algebraic, non-weigthed) Temperature :    1411.6361696295858
 ====================================================================================
            I           J        X(m)        Y(m)        T(K)  Cp(J/kg.K) K(W/sq-m.K)
 ====================================================================================
            1           1      0.0000      0.0000   1396.9850    703.0000     48.5641
            1           2      0.0000      0.0143   1397.5777    703.0000     48.5965
            1           3      0.0000      0.0286   1398.2035    703.0000     48.6306
            1           4      0.0000      0.0429   1398.8687    703.0000     48.6670
            1           5      0.0000      0.0571   1399.5814    703.0000     48.7060
            1           6      0.0000      0.0714   1400.3523    703.0000     48.7483
            1           7      0.0000      0.0857   1401.1951    703.0000     48.7946
            1           8      0.0000      0.1000   1402.1282    703.0000     48.8460
            1           9      0.0000      0.1143   1403.1763    703.0000     48.9038
            1          10      0.0000      0.1286   1404.3726    703.0000     48.9700
            1          11      0.0000      0.1429   1405.7631    703.0000     49.0471
            1          12      0.0000      0.1571   1407.4116    703.0000     49.1389
            1          13      0.0000      0.1714   1409.4080    703.0000     49.2506
            1          14      0.0000      0.1857   1411.8799    703.0000     49.3894
            1          15      0.0000      0.2000   1415.0100    703.0000     49.5664
            2           1      0.0714      0.0000   1399.7397    703.0000     48.7147
            2           2      0.0714      0.0143   1400.7516    703.0000     48.7702
            2           3      0.0714      0.0286   1401.8049    703.0000     48.8282
            2           4      0.0714      0.0429   1402.9063    703.0000     48.8889
            2           5      0.0714      0.0571   1404.0634    703.0000     48.9529
            2           6      0.0714      0.0714   1405.2847    703.0000     49.0206
            2           7      0.0714      0.0857   1406.5801    703.0000     49.0926
            2           8      0.0714      0.1000   1407.9607    703.0000     49.1696
            2           9      0.0714      0.1143   1409.4386    703.0000     49.2523
            2          10      0.0714      0.1286   1411.0271    703.0000     49.3414
            2          11      0.0714      0.1429   1412.7401    703.0000     49.4380
            2          12      0.0714      0.1571   1414.5914    703.0000     49.5427
            2          13      0.0714      0.1714   1416.5930    703.0000     49.6564
            2          14      0.0714      0.1857   1418.7526    703.0000     49.7796
            2          15      0.0714      0.2000   1421.0696    703.0000     49.9124
            3           1      0.1429      0.0000   1401.5216    703.0000     48.8125
            3           2      0.1429      0.0143   1402.7969    703.0000     48.8828
            3           3      0.1429      0.0286   1404.1012    703.0000     48.9550
            3           4      0.1429      0.0429   1405.4387    703.0000     49.0291
            3           5      0.1429      0.0571   1406.8136    703.0000     49.1056
            3           6      0.1429      0.0714   1408.2300    703.0000     49.1846
            3           7      0.1429      0.0857   1409.6921    703.0000     49.2665
            3           8      0.1429      0.1000   1411.2040    703.0000     49.3514
            3           9      0.1429      0.1143   1412.7694    703.0000     49.4396
            3          10      0.1429      0.1286   1414.3914    703.0000     49.5313
            3          11      0.1429      0.1429   1416.0723    703.0000     49.6267
            3          12      0.1429      0.1571   1417.8132    703.0000     49.7259
            3          13      0.1429      0.1714   1419.6135    703.0000     49.8289
            3          14      0.1429      0.1857   1421.4704    703.0000     49.9355
            3          15      0.1429      0.2000   1423.3786    703.0000     50.0455
            4           1      0.2143      0.0000   1402.5636    703.0000     48.8700
            4           2      0.2143      0.0143   1403.9900    703.0000     48.9488
            4           3      0.2143      0.0286   1405.4316    703.0000     49.0287
            4           4      0.2143      0.0429   1406.8905    703.0000     49.1099
            4           5      0.2143      0.0571   1408.3687    703.0000     49.1924
            4           6      0.2143      0.0714   1409.8680    703.0000     49.2763
            4           7      0.2143      0.0857   1411.3900    703.0000     49.3619
            4           8      0.2143      0.1000   1412.9360    703.0000     49.4490
            4           9      0.2143      0.1143   1414.5069    703.0000     49.5379
            4          10      0.2143      0.1286   1416.1033    703.0000     49.6285
            4          11      0.2143      0.1429   1417.7252    703.0000     49.7209
            4          12      0.2143      0.1571   1419.3719    703.0000     49.8150
            4          13      0.2143      0.1714   1421.0423    703.0000     49.9109
            4          14      0.2143      0.1857   1422.7343    703.0000     50.0083
            4          15      0.2143      0.2000   1424.4452    703.0000     50.1072
            5           1      0.2857      0.0000   1403.1412    703.0000     48.9019
            5           2      0.2857      0.0143   1404.6504    703.0000     48.9854
            5           3      0.2857      0.0286   1406.1651    703.0000     49.0695
            5           4      0.2857      0.0429   1407.6863    703.0000     49.1543
            5           5      0.2857      0.0571   1409.2148    703.0000     49.2397
            5           6      0.2857      0.0714   1410.7514    703.0000     49.3259
            5           7      0.2857      0.0857   1412.2966    703.0000     49.4129
            5           8      0.2857      0.1000   1413.8508    703.0000     49.5007
            5           9      0.2857      0.1143   1415.4142    703.0000     49.5894
            5          10      0.2857      0.1286   1416.9870    703.0000     49.6788
            5          11      0.2857      0.1429   1418.5688    703.0000     49.7691
            5          12      0.2857      0.1571   1420.1594    703.0000     49.8602
            5          13      0.2857      0.1714   1421.7579    703.0000     49.9520
            5          14      0.2857      0.1857   1423.3635    703.0000     50.0446
            5          15      0.2857      0.2000   1424.9749    703.0000     50.1378
            6           1      0.3571      0.0000   1403.4473    703.0000     48.9188
            6           2      0.3571      0.0143   1405.0002    703.0000     49.0048
            6           3      0.3571      0.0286   1406.5529    703.0000     49.0911
            6           4      0.3571      0.0429   1408.1059    703.0000     49.1777
            6           5      0.3571      0.0571   1409.6593    703.0000     49.2646
            6           6      0.3571      0.0714   1411.2134    703.0000     49.3519
            6           7      0.3571      0.0857   1412.7683    703.0000     49.4396
            6           8      0.3571      0.1000   1414.3243    703.0000     49.5275
            6           9      0.3571      0.1143   1415.8814    703.0000     49.6159
            6          10      0.3571      0.1286   1417.4396    703.0000     49.7046
            6          11      0.3571      0.1429   1418.9988    703.0000     49.7937
            6          12      0.3571      0.1571   1420.5589    703.0000     49.8831
            6          13      0.3571      0.1714   1422.1196    703.0000     49.9729
            6          14      0.3571      0.1857   1423.6807    703.0000     50.0629
            6          15      0.3571      0.2000   1425.2418    703.0000     50.1533
            7           1      0.4286      0.0000   1403.5943    703.0000     48.9269
            7           2      0.4286      0.0143   1405.1681    703.0000     49.0141
            7           3      0.4286      0.0286   1406.7389    703.0000     49.1014
            7           4      0.4286      0.0429   1408.3068    703.0000     49.1889
            7           5      0.4286      0.0571   1409.8717    703.0000     49.2766
            7           6      0.4286      0.0714   1411.4338    703.0000     49.3643
            7           7      0.4286      0.0857   1412.9929    703.0000     49.4522
            7           8      0.4286      0.1000   1414.5492    703.0000     49.5403
            7           9      0.4286      0.1143   1416.1028    703.0000     49.6285
            7          10      0.4286      0.1286   1417.6536    703.0000     49.7168
            7          11      0.4286      0.1429   1419.2016    703.0000     49.8053
            7          12      0.4286      0.1571   1420.7470    703.0000     49.8939
            7          13      0.4286      0.1714   1422.2896    703.0000     49.9827
            7          14      0.4286      0.1857   1423.8297    703.0000     50.0716
            7          15      0.4286      0.2000   1425.3671    703.0000     50.1606
            8           1      0.5000      0.0000   1403.6378    703.0000     48.9293
            8           2      0.5000      0.0143   1405.2178    703.0000     49.0169
            8           3      0.5000      0.0286   1406.7939    703.0000     49.1045
            8           4      0.5000      0.0429   1408.3661    703.0000     49.1922
            8           5      0.5000      0.0571   1409.9344    703.0000     49.2801
            8           6      0.5000      0.0714   1411.4988    703.0000     49.3680
            8           7      0.5000      0.0857   1413.0591    703.0000     49.4560
            8           8      0.5000      0.1000   1414.6155    703.0000     49.5440
            8           9      0.5000      0.1143   1416.1679    703.0000     49.6322
            8          10      0.5000      0.1286   1417.7164    703.0000     49.7204
            8          11      0.5000      0.1429   1419.2612    703.0000     49.8087
            8          12      0.5000      0.1571   1420.8022    703.0000     49.8971
            8          13      0.5000      0.1714   1422.3395    703.0000     49.9855
            8          14      0.5000      0.1857   1423.8734    703.0000     50.0741
            8          15      0.5000      0.2000   1425.4038    703.0000     50.1627
            9           1      0.5714      0.0000   1403.5943    703.0000     48.9269
            9           2      0.5714      0.0143   1405.1681    703.0000     49.0141
            9           3      0.5714      0.0286   1406.7389    703.0000     49.1014
            9           4      0.5714      0.0429   1408.3068    703.0000     49.1889
            9           5      0.5714      0.0571   1409.8717    703.0000     49.2766
            9           6      0.5714      0.0714   1411.4338    703.0000     49.3643
            9           7      0.5714      0.0857   1412.9929    703.0000     49.4522
            9           8      0.5714      0.1000   1414.5492    703.0000     49.5403
            9           9      0.5714      0.1143   1416.1028    703.0000     49.6285
            9          10      0.5714      0.1286   1417.6536    703.0000     49.7168
            9          11      0.5714      0.1429   1419.2016    703.0000     49.8053
            9          12      0.5714      0.1571   1420.7470    703.0000     49.8939
            9          13      0.5714      0.1714   1422.2896    703.0000     49.9827
            9          14      0.5714      0.1857   1423.8297    703.0000     50.0716
            9          15      0.5714      0.2000   1425.3671    703.0000     50.1606
           10           1      0.6429      0.0000   1403.4473    703.0000     48.9188
           10           2      0.6429      0.0143   1405.0002    703.0000     49.0048
           10           3      0.6429      0.0286   1406.5529    703.0000     49.0911
           10           4      0.6429      0.0429   1408.1059    703.0000     49.1777
           10           5      0.6429      0.0571   1409.6593    703.0000     49.2646
           10           6      0.6429      0.0714   1411.2134    703.0000     49.3519
           10           7      0.6429      0.0857   1412.7684    703.0000     49.4396
           10           8      0.6429      0.1000   1414.3244    703.0000     49.5275
           10           9      0.6429      0.1143   1415.8815    703.0000     49.6159
           10          10      0.6429      0.1286   1417.4396    703.0000     49.7046
           10          11      0.6429      0.1429   1418.9988    703.0000     49.7937
           10          12      0.6429      0.1571   1420.5589    703.0000     49.8831
           10          13      0.6429      0.1714   1422.1196    703.0000     49.9729
           10          14      0.6429      0.1857   1423.6807    703.0000     50.0629
           10          15      0.6429      0.2000   1425.2418    703.0000     50.1533
           11           1      0.7143      0.0000   1403.1412    703.0000     48.9019
           11           2      0.7143      0.0143   1404.6504    703.0000     48.9854
           11           3      0.7143      0.0286   1406.1652    703.0000     49.0695
           11           4      0.7143      0.0429   1407.6864    703.0000     49.1543
           11           5      0.7143      0.0571   1409.2150    703.0000     49.2397
           11           6      0.7143      0.0714   1410.7515    703.0000     49.3260
           11           7      0.7143      0.0857   1412.2967    703.0000     49.4129
           11           8      0.7143      0.1000   1413.8509    703.0000     49.5007
           11           9      0.7143      0.1143   1415.4143    703.0000     49.5894
           11          10      0.7143      0.1286   1416.9871    703.0000     49.6788
           11          11      0.7143      0.1429   1418.5689    703.0000     49.7691
           11          12      0.7143      0.1571   1420.1595    703.0000     49.8602
           11          13      0.7143      0.1714   1421.7580    703.0000     49.9520
           11          14      0.7143      0.1857   1423.3635    703.0000     50.0446
           11          15      0.7143      0.2000   1424.9750    703.0000     50.1378
           12           1      0.7857      0.0000   1402.5639    703.0000     48.8700
           12           2      0.7857      0.0143   1403.9903    703.0000     48.9488
           12           3      0.7857      0.0286   1405.4319    703.0000     49.0287
           12           4      0.7857      0.0429   1406.8908    703.0000     49.1099
           12           5      0.7857      0.0571   1408.3691    703.0000     49.1924
           12           6      0.7857      0.0714   1409.8684    703.0000     49.2764
           12           7      0.7857      0.0857   1411.3904    703.0000     49.3619
           12           8      0.7857      0.1000   1412.9364    703.0000     49.4490
           12           9      0.7857      0.1143   1414.5073    703.0000     49.5379
           12          10      0.7857      0.1286   1416.1037    703.0000     49.6285
           12          11      0.7857      0.1429   1417.7255    703.0000     49.7209
           12          12      0.7857      0.1571   1419.3722    703.0000     49.8151
           12          13      0.7857      0.1714   1421.0426    703.0000     49.9109
           12          14      0.7857      0.1857   1422.7345    703.0000     50.0083
           12          15      0.7857      0.2000   1424.4454    703.0000     50.1072
           13           1      0.8571      0.0000   1401.5221    703.0000     48.8126
           13           2      0.8571      0.0143   1402.7975    703.0000     48.8829
           13           3      0.8571      0.0286   1404.1019    703.0000     48.9550
           13           4      0.8571      0.0429   1405.4395    703.0000     49.0292
           13           5      0.8571      0.0571   1406.8144    703.0000     49.1056
           13           6      0.8571      0.0714   1408.2308    703.0000     49.1847
           13           7      0.8571      0.0857   1409.6929    703.0000     49.2665
           13           8      0.8571      0.1000   1411.2049    703.0000     49.3514
           13           9      0.8571      0.1143   1412.7702    703.0000     49.4397
           13          10      0.8571      0.1286   1414.3922    703.0000     49.5314
           13          11      0.8571      0.1429   1416.0731    703.0000     49.6268
           13          12      0.8571      0.1571   1417.8139    703.0000     49.7260
           13          13      0.8571      0.1714   1419.6141    703.0000     49.8289
           13          14      0.8571      0.1857   1421.4710    703.0000     49.9355
           13          15      0.8571      0.2000   1423.3791    703.0000     50.0455
           14           1      0.9286      0.0000   1399.7400    703.0000     48.7147
           14           2      0.9286      0.0143   1400.7520    703.0000     48.7702
           14           3      0.9286      0.0286   1401.8053    703.0000     48.8282
           14           4      0.9286      0.0429   1402.9068    703.0000     48.8889
           14           5      0.9286      0.0571   1404.0638    703.0000     48.9529
           14           6      0.9286      0.0714   1405.2852    703.0000     49.0206
           14           7      0.9286      0.0857   1406.5806    703.0000     49.0926
           14           8      0.9286      0.1000   1407.9612    703.0000     49.1696
           14           9      0.9286      0.1143   1409.4391    703.0000     49.2523
           14          10      0.9286      0.1286   1411.0276    703.0000     49.3415
           14          11      0.9286      0.1429   1412.7406    703.0000     49.4380
           14          12      0.9286      0.1571   1414.5918    703.0000     49.5427
           14          13      0.9286      0.1714   1416.5933    703.0000     49.6564
           14          14      0.9286      0.1857   1418.7530    703.0000     49.7796
           14          15      0.9286      0.2000   1421.0699    703.0000     49.9125
           15           1      1.0000      0.0000   1396.9850    703.0000     48.5641
           15           2      1.0000      0.0143   1397.5777    703.0000     48.5965
           15           3      1.0000      0.0286   1398.2035    703.0000     48.6306
           15           4      1.0000      0.0429   1398.8687    703.0000     48.6670
           15           5      1.0000      0.0571   1399.5814    703.0000     48.7060
           15           6      1.0000      0.0714   1400.3522    703.0000     48.7483
           15           7      1.0000      0.0857   1401.1951    703.0000     48.7946
           15           8      1.0000      0.1000   1402.1282    703.0000     48.8460
           15           9      1.0000      0.1143   1403.1763    703.0000     48.9038
           15          10      1.0000      0.1286   1404.3726    703.0000     48.9700
           15          11      1.0000      0.1429   1405.7631    703.0000     49.0471
           15          12      1.0000      0.1571   1407.4116    703.0000     49.1389
           15          13      1.0000      0.1714   1409.4080    703.0000     49.2506
           15          14      1.0000      0.1857   1411.8799    703.0000     49.3894
           15          15      1.0000      0.2000   1415.0099    703.0000     49.5664
