 ====================================================================================
               Transient state solution for a 2D rectangular plate
                    for applications in steel reheating
                 e.g. Reheating furnaces for rolling processing
 ====================================================================================
 Author: Dickson Alves de Souza

 Based on lectures by professor Roberto Parreiras Tavares

 and book Numerical Heat Transfer and Fluid Flow
 by Suhas V. Patankar (1980)

 Federal University of Minas Gerais (UFMG)
 October 26th, 2017
 ====================================================================================
                              Input parameters:

 Lenght in X direction (meters):           1.0000
 Lenght in Y direction (meters):           0.2000
 Nodes in X direction:                         15
 Nodes in Y direction:                         15
 ====================================================================================

                       STAGE                1/  5
                       START Time:         0.0000
                       END Time:        1140.0000
                       Iterations:             1042

 ====================================================================================
 Temperature of fluid at left face (T left):             1223.1500
 Temperature of fluid at right face (T right):           1223.1500
 Temperature of fluid at bottom face (T bottom):         1223.1500
 Temperature of fluid at top face (T top):               1223.1500
 ------------------------------------------------------------------------------------
 Heat transfer coefficient at left face (H left):          50.0000
 Heat transfer coefficient at right face (H right):        50.0000
 Heat transfer coefficient at bottom face (H bottom):       8.0000
 Heat transfer coefficient at top face (H top):           150.0000
 ====================================================================================


 ====================================================================================

                       STAGE                2/  5
                       START Time:      1140.0000
                       END Time:        3060.0000
                       Iterations:             1042

 ====================================================================================
 Temperature of fluid at left face (T left):             1423.1500
 Temperature of fluid at right face (T right):           1423.1500
 Temperature of fluid at bottom face (T bottom):         1423.1500
 Temperature of fluid at top face (T top):               1423.1500
 ------------------------------------------------------------------------------------
 Heat transfer coefficient at left face (H left):          50.0000
 Heat transfer coefficient at right face (H right):        50.0000
 Heat transfer coefficient at bottom face (H bottom):       8.0000
 Heat transfer coefficient at top face (H top):           150.0000
 ====================================================================================


 ====================================================================================

                       STAGE                3/  5
                       START Time:      3060.0000
                       END Time:        4980.0000
                       Iterations:             1042

 ====================================================================================
 Temperature of fluid at left face (T left):             1513.1500
 Temperature of fluid at right face (T right):           1513.1500
 Temperature of fluid at bottom face (T bottom):         1513.1500
 Temperature of fluid at top face (T top):               1513.1500
 ------------------------------------------------------------------------------------
 Heat transfer coefficient at left face (H left):          50.0000
 Heat transfer coefficient at right face (H right):        50.0000
 Heat transfer coefficient at bottom face (H bottom):       8.0000
 Heat transfer coefficient at top face (H top):           150.0000
 ====================================================================================


 ====================================================================================

                       STAGE                4/  5
                       START Time:      4980.0000
                       END Time:        8400.0000
                       Iterations:             1042

 ====================================================================================
 Temperature of fluid at left face (T left):             1503.1500
 Temperature of fluid at right face (T right):           1503.1500
 Temperature of fluid at bottom face (T bottom):         1503.1500
 Temperature of fluid at top face (T top):               1523.1500
 ------------------------------------------------------------------------------------
 Heat transfer coefficient at left face (H left):          50.0000
 Heat transfer coefficient at right face (H right):        50.0000
 Heat transfer coefficient at bottom face (H bottom):       8.0000
 Heat transfer coefficient at top face (H top):           150.0000
 ====================================================================================


 ====================================================================================

                       STAGE                5/  5
                       START Time:      8400.0000
                       END Time:       18400.0000
                       Iterations:             1042

 ====================================================================================
 Temperature of fluid at left face (T left):             1393.1500
 Temperature of fluid at right face (T right):           1393.1500
 Temperature of fluid at bottom face (T bottom):         1393.1500
 Temperature of fluid at top face (T top):               1433.1500
 ------------------------------------------------------------------------------------
 Heat transfer coefficient at left face (H left):          50.0000
 Heat transfer coefficient at right face (H right):        50.0000
 Heat transfer coefficient at bottom face (H bottom):       8.0000
 Heat transfer coefficient at top face (H top):           150.0000
 ====================================================================================


 SOLUTION of LINEAR SYSTEM: TDMA (tri-diagonal matrix algorithm)
      ADI approach employed in solution.
 Tolerance:       0.0010

 ====================================================================================
                    Calculation Results
 Current time:    12600.000000000000       seconds
 Maximum Temperature :    1427.9793924986639
 Minimum Temperature :    1397.8508652056726
 Average(algebraic, non-weigthed) Temperature :    1414.5977038808751
 ====================================================================================
            I           J        X(m)        Y(m)        T(K)  Cp(J/kg.K) K(W/sq-m.K)
 ====================================================================================
            1           1      0.0000      0.0000   1397.8509    703.0000     48.6114
            1           2      0.0000      0.0143   1398.5666    703.0000     48.6505
            1           3      0.0000      0.0286   1399.2979    703.0000     48.6905
            1           4      0.0000      0.0429   1400.0494    703.0000     48.7317
            1           5      0.0000      0.0571   1400.8277    703.0000     48.7744
            1           6      0.0000      0.0714   1401.6424    703.0000     48.8192
            1           7      0.0000      0.0857   1402.5065    703.0000     48.8668
            1           8      0.0000      0.1000   1403.4381    703.0000     48.9183
            1           9      0.0000      0.1143   1404.4618    703.0000     48.9749
            1          10      0.0000      0.1286   1405.6116    703.0000     49.0387
            1          11      0.0000      0.1429   1406.9343    703.0000     49.1123
            1          12      0.0000      0.1571   1408.4948    703.0000     49.1994
            1          13      0.0000      0.1714   1410.3848    703.0000     49.3053
            1          14      0.0000      0.1857   1412.7338    703.0000     49.4376
            1          15      0.0000      0.2000   1415.7268    703.0000     49.6071
            2           1      0.0714      0.0000   1401.2744    703.0000     48.7989
            2           2      0.0714      0.0143   1402.5040    703.0000     48.8667
            2           3      0.0714      0.0286   1403.7440    703.0000     48.9352
            2           4      0.0714      0.0429   1404.9977    703.0000     49.0046
            2           5      0.0714      0.0571   1406.2702    703.0000     49.0753
            2           6      0.0714      0.0714   1407.5684    703.0000     49.1477
            2           7      0.0714      0.0857   1408.9008    703.0000     49.2221
            2           8      0.0714      0.1000   1410.2780    703.0000     49.2993
            2           9      0.0714      0.1143   1411.7123    703.0000     49.3800
            2          10      0.0714      0.1286   1413.2182    703.0000     49.4650
            2          11      0.0714      0.1429   1414.8110    703.0000     49.5551
            2          12      0.0714      0.1571   1416.5067    703.0000     49.6515
            2          13      0.0714      0.1714   1418.3204    703.0000     49.7549
            2          14      0.0714      0.1857   1420.2634    703.0000     49.8661
            2          15      0.0714      0.2000   1422.3389    703.0000     49.9855
            3           1      0.1429      0.0000   1403.6074    703.0000     48.9276
            3           2      0.1429      0.0143   1405.1784    703.0000     49.0147
            3           3      0.1429      0.0286   1406.7359    703.0000     49.1013
            3           4      0.1429      0.0429   1408.2798    703.0000     49.1874
            3           5      0.1429      0.0571   1409.8110    703.0000     49.2731
            3           6      0.1429      0.0714   1411.3312    703.0000     49.3586
            3           7      0.1429      0.0857   1412.8431    703.0000     49.4438
            3           8      0.1429      0.1000   1414.3501    703.0000     49.5290
            3           9      0.1429      0.1143   1415.8563    703.0000     49.6145
            3          10      0.1429      0.1286   1417.3660    703.0000     49.7004
            3          11      0.1429      0.1429   1418.8839    703.0000     49.7871
            3          12      0.1429      0.1571   1420.4141    703.0000     49.8748
            3          13      0.1429      0.1714   1421.9599    703.0000     49.9637
            3          14      0.1429      0.1857   1423.5231    703.0000     50.0538
            3          15      0.1429      0.2000   1425.1037    703.0000     50.1453
            4           1      0.2143      0.0000   1405.0675    703.0000     49.0085
            4           2      0.2143      0.0143   1406.8487    703.0000     49.1076
            4           3      0.2143      0.0286   1408.5939    703.0000     49.2050
            4           4      0.2143      0.0429   1410.3003    703.0000     49.3006
            4           5      0.2143      0.0571   1411.9659    703.0000     49.3943
            4           6      0.2143      0.0714   1413.5896    703.0000     49.4860
            4           7      0.2143      0.0857   1415.1711    703.0000     49.5756
            4           8      0.2143      0.1000   1416.7111    703.0000     49.6631
            4           9      0.2143      0.1143   1418.2111    703.0000     49.7486
            4          10      0.2143      0.1286   1419.6730    703.0000     49.8323
            4          11      0.2143      0.1429   1421.0996    703.0000     49.9142
            4          12      0.2143      0.1571   1422.4938    703.0000     49.9944
            4          13      0.2143      0.1714   1423.8592    703.0000     50.0733
            4          14      0.2143      0.1857   1425.1990    703.0000     50.1508
            4          15      0.2143      0.2000   1426.5169    703.0000     50.2274
            5           1      0.2857      0.0000   1405.9365    703.0000     49.0568
            5           2      0.2857      0.0143   1407.8417    703.0000     49.1629
            5           3      0.2857      0.0286   1409.6953    703.0000     49.2667
            5           4      0.2857      0.0429   1411.4926    703.0000     49.3676
            5           5      0.2857      0.0571   1413.2302    703.0000     49.4656
            5           6      0.2857      0.0714   1414.9055    703.0000     49.5605
            5           7      0.2857      0.0857   1416.5171    703.0000     49.6521
            5           8      0.2857      0.1000   1418.0648    703.0000     49.7403
            5           9      0.2857      0.1143   1419.5491    703.0000     49.8252
            5          10      0.2857      0.1286   1420.9720    703.0000     49.9068
            5          11      0.2857      0.1429   1422.3361    703.0000     49.9853
            5          12      0.2857      0.1571   1423.6450    703.0000     50.0609
            5          13      0.2857      0.1714   1424.9033    703.0000     50.1337
            5          14      0.2857      0.1857   1426.1160    703.0000     50.2041
            5          15      0.2857      0.2000   1427.2888    703.0000     50.2723
            6           1      0.3571      0.0000   1406.4269    703.0000     49.0841
            6           2      0.3571      0.0143   1408.4018    703.0000     49.1942
            6           3      0.3571      0.0286   1410.3156    703.0000     49.3015
            6           4      0.3571      0.0429   1412.1628    703.0000     49.4054
            6           5      0.3571      0.0571   1413.9390    703.0000     49.5057
            6           6      0.3571      0.0714   1415.6410    703.0000     49.6022
            6           7      0.3571      0.0857   1417.2668    703.0000     49.6948
            6           8      0.3571      0.1000   1418.8159    703.0000     49.7832
            6           9      0.3571      0.1143   1420.2888    703.0000     49.8676
            6          10      0.3571      0.1286   1421.6873    703.0000     49.9480
            6          11      0.3571      0.1429   1423.0146    703.0000     50.0245
            6          12      0.3571      0.1571   1424.2748    703.0000     50.0973
            6          13      0.3571      0.1714   1425.4730    703.0000     50.1667
            6          14      0.3571      0.1857   1426.6153    703.0000     50.2331
            6          15      0.3571      0.2000   1427.7089    703.0000     50.2968
            7           1      0.4286      0.0000   1406.6732    703.0000     49.0978
            7           2      0.4286      0.0143   1408.6830    703.0000     49.2100
            7           3      0.4286      0.0286   1410.6269    703.0000     49.3189
            7           4      0.4286      0.0429   1412.4988    703.0000     49.4243
            7           5      0.4286      0.0571   1414.2939    703.0000     49.5258
            7           6      0.4286      0.0714   1416.0087    703.0000     49.6231
            7           7      0.4286      0.0857   1417.6411    703.0000     49.7161
            7           8      0.4286      0.1000   1419.1904    703.0000     49.8046
            7           9      0.4286      0.1143   1420.6570    703.0000     49.8887
            7          10      0.4286      0.1286   1422.0429    703.0000     49.9684
            7          11      0.4286      0.1429   1423.3514    703.0000     50.0439
            7          12      0.4286      0.1571   1424.5869    703.0000     50.1154
            7          13      0.4286      0.1714   1425.7551    703.0000     50.1831
            7          14      0.4286      0.1857   1426.8625    703.0000     50.2475
            7          15      0.4286      0.2000   1427.9168    703.0000     50.3089
            8           1      0.5000      0.0000   1406.7477    703.0000     49.1019
            8           2      0.5000      0.0143   1408.7681    703.0000     49.2147
            8           3      0.5000      0.0286   1410.7210    703.0000     49.3242
            8           4      0.5000      0.0429   1412.6004    703.0000     49.4301
            8           5      0.5000      0.0571   1414.4012    703.0000     49.5319
            8           6      0.5000      0.0714   1416.1198    703.0000     49.6295
            8           7      0.5000      0.0857   1417.7542    703.0000     49.7226
            8           8      0.5000      0.1000   1419.3034    703.0000     49.8111
            8           9      0.5000      0.1143   1420.7680    703.0000     49.8951
            8          10      0.5000      0.1286   1422.1501    703.0000     49.9746
            8          11      0.5000      0.1429   1423.4529    703.0000     50.0498
            8          12      0.5000      0.1571   1424.6809    703.0000     50.1208
            8          13      0.5000      0.1714   1425.8400    703.0000     50.1880
            8          14      0.5000      0.1857   1426.9369    703.0000     50.2518
            8          15      0.5000      0.2000   1427.9794    703.0000     50.3125
            9           1      0.5714      0.0000   1406.6732    703.0000     49.0978
            9           2      0.5714      0.0143   1408.6830    703.0000     49.2100
            9           3      0.5714      0.0286   1410.6269    703.0000     49.3189
            9           4      0.5714      0.0429   1412.4988    703.0000     49.4243
            9           5      0.5714      0.0571   1414.2940    703.0000     49.5258
            9           6      0.5714      0.0714   1416.0088    703.0000     49.6231
            9           7      0.5714      0.0857   1417.6412    703.0000     49.7161
            9           8      0.5714      0.1000   1419.1904    703.0000     49.8047
            9           9      0.5714      0.1143   1420.6571    703.0000     49.8887
            9          10      0.5714      0.1286   1422.0430    703.0000     49.9685
            9          11      0.5714      0.1429   1423.3515    703.0000     50.0439
            9          12      0.5714      0.1571   1424.5870    703.0000     50.1154
            9          13      0.5714      0.1714   1425.7551    703.0000     50.1831
            9          14      0.5714      0.1857   1426.8625    703.0000     50.2475
            9          15      0.5714      0.2000   1427.9169    703.0000     50.3089
           10           1      0.6429      0.0000   1406.4270    703.0000     49.0841
           10           2      0.6429      0.0143   1408.4020    703.0000     49.1942
           10           3      0.6429      0.0286   1410.3158    703.0000     49.3015
           10           4      0.6429      0.0429   1412.1630    703.0000     49.4054
           10           5      0.6429      0.0571   1413.9392    703.0000     49.5057
           10           6      0.6429      0.0714   1415.6412    703.0000     49.6022
           10           7      0.6429      0.0857   1417.2670    703.0000     49.6948
           10           8      0.6429      0.1000   1418.8161    703.0000     49.7832
           10           9      0.6429      0.1143   1420.2890    703.0000     49.8676
           10          10      0.6429      0.1286   1421.6875    703.0000     49.9480
           10          11      0.6429      0.1429   1423.0148    703.0000     50.0245
           10          12      0.6429      0.1571   1424.2749    703.0000     50.0973
           10          13      0.6429      0.1714   1425.4731    703.0000     50.1667
           10          14      0.6429      0.1857   1426.6155    703.0000     50.2331
           10          15      0.6429      0.2000   1427.7091    703.0000     50.2968
           11           1      0.7143      0.0000   1405.9368    703.0000     49.0568
           11           2      0.7143      0.0143   1407.8421    703.0000     49.1630
           11           3      0.7143      0.0286   1409.6957    703.0000     49.2667
           11           4      0.7143      0.0429   1411.4931    703.0000     49.3677
           11           5      0.7143      0.0571   1413.2307    703.0000     49.4657
           11           6      0.7143      0.0714   1414.9060    703.0000     49.5605
           11           7      0.7143      0.0857   1416.5176    703.0000     49.6521
           11           8      0.7143      0.1000   1418.0652    703.0000     49.7403
           11           9      0.7143      0.1143   1419.5496    703.0000     49.8252
           11          10      0.7143      0.1286   1420.9724    703.0000     49.9069
           11          11      0.7143      0.1429   1422.3365    703.0000     49.9854
           11          12      0.7143      0.1571   1423.6455    703.0000     50.0609
           11          13      0.7143      0.1714   1424.9037    703.0000     50.1337
           11          14      0.7143      0.1857   1426.1163    703.0000     50.2041
           11          15      0.7143      0.2000   1427.2891    703.0000     50.2723
           12           1      0.7857      0.0000   1405.0682    703.0000     49.0086
           12           2      0.7857      0.0143   1406.8495    703.0000     49.1076
           12           3      0.7857      0.0286   1408.5948    703.0000     49.2050
           12           4      0.7857      0.0429   1410.3013    703.0000     49.3007
           12           5      0.7857      0.0571   1411.9669    703.0000     49.3943
           12           6      0.7857      0.0714   1413.5906    703.0000     49.4860
           12           7      0.7857      0.0857   1415.1721    703.0000     49.5756
           12           8      0.7857      0.1000   1416.7122    703.0000     49.6632
           12           9      0.7857      0.1143   1418.2121    703.0000     49.7487
           12          10      0.7857      0.1286   1419.6740    703.0000     49.8323
           12          11      0.7857      0.1429   1421.1005    703.0000     49.9142
           12          12      0.7857      0.1571   1422.4947    703.0000     49.9945
           12          13      0.7857      0.1714   1423.8600    703.0000     50.0733
           12          14      0.7857      0.1857   1425.1997    703.0000     50.1509
           12          15      0.7857      0.2000   1426.5175    703.0000     50.2274
           13           1      0.8571      0.0000   1403.6087    703.0000     48.9277
           13           2      0.8571      0.0143   1405.1798    703.0000     49.0148
           13           3      0.8571      0.0286   1406.7375    703.0000     49.1014
           13           4      0.8571      0.0429   1408.2815    703.0000     49.1875
           13           5      0.8571      0.0571   1409.8128    703.0000     49.2733
           13           6      0.8571      0.0714   1411.3331    703.0000     49.3587
           13           7      0.8571      0.0857   1412.8451    703.0000     49.4439
           13           8      0.8571      0.1000   1414.3520    703.0000     49.5291
           13           9      0.8571      0.1143   1415.8582    703.0000     49.6146
           13          10      0.8571      0.1286   1417.3679    703.0000     49.7005
           13          11      0.8571      0.1429   1418.8857    703.0000     49.7872
           13          12      0.8571      0.1571   1420.4157    703.0000     49.8749
           13          13      0.8571      0.1714   1421.9613    703.0000     49.9637
           13          14      0.8571      0.1857   1423.5244    703.0000     50.0539
           13          15      0.8571      0.2000   1425.1048    703.0000     50.1454
           14           1      0.9286      0.0000   1401.2752    703.0000     48.7990
           14           2      0.9286      0.0143   1402.5050    703.0000     48.8667
           14           3      0.9286      0.0286   1403.7450    703.0000     48.9352
           14           4      0.9286      0.0429   1404.9988    703.0000     49.0047
           14           5      0.9286      0.0571   1406.2715    703.0000     49.0754
           14           6      0.9286      0.0714   1407.5697    703.0000     49.1478
           14           7      0.9286      0.0857   1408.9021    703.0000     49.2222
           14           8      0.9286      0.1000   1410.2792    703.0000     49.2994
           14           9      0.9286      0.1143   1411.7136    703.0000     49.3801
           14          10      0.9286      0.1286   1413.2194    703.0000     49.4650
           14          11      0.9286      0.1429   1414.8121    703.0000     49.5552
           14          12      0.9286      0.1571   1416.5078    703.0000     49.6515
           14          13      0.9286      0.1714   1418.3214    703.0000     49.7549
           14          14      0.9286      0.1857   1420.2643    703.0000     49.8662
           14          15      0.9286      0.2000   1422.3396    703.0000     49.9855
           15           1      1.0000      0.0000   1397.8511    703.0000     48.6114
           15           2      1.0000      0.0143   1398.5669    703.0000     48.6505
           15           3      1.0000      0.0286   1399.2982    703.0000     48.6905
           15           4      1.0000      0.0429   1400.0497    703.0000     48.7317
           15           5      1.0000      0.0571   1400.8281    703.0000     48.7744
           15           6      1.0000      0.0714   1401.6427    703.0000     48.8192
           15           7      1.0000      0.0857   1402.5068    703.0000     48.8668
           15           8      1.0000      0.1000   1403.4384    703.0000     48.9183
           15           9      1.0000      0.1143   1404.4622    703.0000     48.9750
           15          10      1.0000      0.1286   1405.6120    703.0000     49.0388
           15          11      1.0000      0.1429   1406.9346    703.0000     49.1123
           15          12      1.0000      0.1571   1408.4951    703.0000     49.1995
           15          13      1.0000      0.1714   1410.3850    703.0000     49.3054
           15          14      1.0000      0.1857   1412.7340    703.0000     49.4376
           15          15      1.0000      0.2000   1415.7270    703.0000     49.6071
