 ====================================================================================
               Transient state solution for a 2D rectangular plate
                    for applications in steel reheating
                 e.g. Reheating furnaces for rolling processing
 ====================================================================================
 Author: Dickson Alves de Souza

 Based on lectures by professor Roberto Parreiras Tavares

 and book Numerical Heat Transfer and Fluid Flow
 by Suhas V. Patankar (1980)

 Federal University of Minas Gerais (UFMG)
 October 26th, 2017
 ====================================================================================
                              Input parameters:

 Lenght in X direction (meters):           1.0000
 Lenght in Y direction (meters):           0.2000
 Nodes in X direction:                         15
 Nodes in Y direction:                         15
 ====================================================================================

                       STAGE                1/  5
                       START Time:         0.0000
                       END Time:        1140.0000
                       Iterations:              962

 ====================================================================================
 Temperature of fluid at left face (T left):             1223.1500
 Temperature of fluid at right face (T right):           1223.1500
 Temperature of fluid at bottom face (T bottom):         1223.1500
 Temperature of fluid at top face (T top):               1223.1500
 ------------------------------------------------------------------------------------
 Heat transfer coefficient at left face (H left):          50.0000
 Heat transfer coefficient at right face (H right):        50.0000
 Heat transfer coefficient at bottom face (H bottom):       8.0000
 Heat transfer coefficient at top face (H top):           150.0000
 ====================================================================================


 ====================================================================================

                       STAGE                2/  5
                       START Time:      1140.0000
                       END Time:        3060.0000
                       Iterations:              962

 ====================================================================================
 Temperature of fluid at left face (T left):             1423.1500
 Temperature of fluid at right face (T right):           1423.1500
 Temperature of fluid at bottom face (T bottom):         1423.1500
 Temperature of fluid at top face (T top):               1423.1500
 ------------------------------------------------------------------------------------
 Heat transfer coefficient at left face (H left):          50.0000
 Heat transfer coefficient at right face (H right):        50.0000
 Heat transfer coefficient at bottom face (H bottom):       8.0000
 Heat transfer coefficient at top face (H top):           150.0000
 ====================================================================================


 ====================================================================================

                       STAGE                3/  5
                       START Time:      3060.0000
                       END Time:        4980.0000
                       Iterations:              962

 ====================================================================================
 Temperature of fluid at left face (T left):             1513.1500
 Temperature of fluid at right face (T right):           1513.1500
 Temperature of fluid at bottom face (T bottom):         1513.1500
 Temperature of fluid at top face (T top):               1513.1500
 ------------------------------------------------------------------------------------
 Heat transfer coefficient at left face (H left):          50.0000
 Heat transfer coefficient at right face (H right):        50.0000
 Heat transfer coefficient at bottom face (H bottom):       8.0000
 Heat transfer coefficient at top face (H top):           150.0000
 ====================================================================================


 ====================================================================================

                       STAGE                4/  5
                       START Time:      4980.0000
                       END Time:        8400.0000
                       Iterations:              962

 ====================================================================================
 Temperature of fluid at left face (T left):             1503.1500
 Temperature of fluid at right face (T right):           1503.1500
 Temperature of fluid at bottom face (T bottom):         1503.1500
 Temperature of fluid at top face (T top):               1523.1500
 ------------------------------------------------------------------------------------
 Heat transfer coefficient at left face (H left):          50.0000
 Heat transfer coefficient at right face (H right):        50.0000
 Heat transfer coefficient at bottom face (H bottom):       8.0000
 Heat transfer coefficient at top face (H top):           150.0000
 ====================================================================================


 ====================================================================================

                       STAGE                5/  5
                       START Time:      8400.0000
                       END Time:       18400.0000
                       Iterations:              962

 ====================================================================================
 Temperature of fluid at left face (T left):             1393.1500
 Temperature of fluid at right face (T right):           1393.1500
 Temperature of fluid at bottom face (T bottom):         1393.1500
 Temperature of fluid at top face (T top):               1433.1500
 ------------------------------------------------------------------------------------
 Heat transfer coefficient at left face (H left):          50.0000
 Heat transfer coefficient at right face (H right):        50.0000
 Heat transfer coefficient at bottom face (H bottom):       8.0000
 Heat transfer coefficient at top face (H top):           150.0000
 ====================================================================================


 SOLUTION of LINEAR SYSTEM: TDMA (tri-diagonal matrix algorithm)
      ADI approach employed in solution.
 Tolerance:       0.0010

 ====================================================================================
                    Calculation Results
 Current time:    11200.000000000000       seconds
 Maximum Temperature :    1432.9080479443912
 Minimum Temperature :    1399.8706349619392
 Average(algebraic, non-weigthed) Temperature :    1420.7091106945372
 ====================================================================================
            I           J        X(m)        Y(m)        T(K)  Cp(J/kg.K) K(W/sq-m.K)
 ====================================================================================
            1           1      0.0000      0.0000   1399.8706    703.0000     48.7218
            1           2      0.0000      0.0143   1400.8731    703.0000     48.7769
            1           3      0.0000      0.0286   1401.8504    703.0000     48.8307
            1           4      0.0000      0.0429   1402.8030    703.0000     48.8832
            1           5      0.0000      0.0571   1403.7341    703.0000     48.9346
            1           6      0.0000      0.0714   1404.6508    703.0000     48.9854
            1           7      0.0000      0.0857   1405.5646    703.0000     49.0361
            1           8      0.0000      0.1000   1406.4928    703.0000     49.0877
            1           9      0.0000      0.1143   1407.4603    703.0000     49.1417
            1          10      0.0000      0.1286   1408.5021    703.0000     49.1998
            1          11      0.0000      0.1429   1409.6669    703.0000     49.2651
            1          12      0.0000      0.1571   1411.0227    703.0000     49.3412
            1          13      0.0000      0.1714   1412.6649    703.0000     49.4337
            1          14      0.0000      0.1857   1414.7275    703.0000     49.5504
            1          15      0.0000      0.2000   1417.4010    703.0000     49.7024
            2           1      0.0714      0.0000   1404.8037    703.0000     48.9939
            2           2      0.0714      0.0143   1406.5336    703.0000     49.0900
            2           3      0.0714      0.0286   1408.2019    703.0000     49.1831
            2           4      0.0714      0.0429   1409.8051    703.0000     49.2728
            2           5      0.0714      0.0571   1411.3427    703.0000     49.3592
            2           6      0.0714      0.0714   1412.8171    703.0000     49.4423
            2           7      0.0714      0.0857   1414.2345    703.0000     49.5225
            2           8      0.0714      0.1000   1415.6043    703.0000     49.6001
            2           9      0.0714      0.1143   1416.9395    703.0000     49.6761
            2          10      0.0714      0.1286   1418.2563    703.0000     49.7512
            2          11      0.0714      0.1429   1419.5740    703.0000     49.8266
            2          12      0.0714      0.1571   1420.9135    703.0000     49.9035
            2          13      0.0714      0.1714   1422.2965    703.0000     49.9831
            2          14      0.0714      0.1857   1423.7421    703.0000     50.0665
            2          15      0.0714      0.2000   1425.2624    703.0000     50.1545
            3           1      0.1429      0.0000   1408.2317    703.0000     49.1847
            3           2      0.1429      0.0143   1410.4574    703.0000     49.3094
            3           3      0.1429      0.0286   1412.5749    703.0000     49.4286
            3           4      0.1429      0.0429   1414.5751    703.0000     49.5418
            3           5      0.1429      0.0571   1416.4518    703.0000     49.6483
            3           6      0.1429      0.0714   1418.2015    703.0000     49.7481
            3           7      0.1429      0.0857   1419.8237    703.0000     49.8409
            3           8      0.1429      0.1000   1421.3205    703.0000     49.9269
            3           9      0.1429      0.1143   1422.6968    703.0000     50.0061
            3          10      0.1429      0.1286   1423.9599    703.0000     50.0791
            3          11      0.1429      0.1429   1425.1188    703.0000     50.1462
            3          12      0.1429      0.1571   1426.1843    703.0000     50.2080
            3          13      0.1429      0.1714   1427.1679    703.0000     50.2652
            3          14      0.1429      0.1857   1428.0815    703.0000     50.3185
            3          15      0.1429      0.2000   1428.9364    703.0000     50.3684
            4           1      0.2143      0.0000   1410.3785    703.0000     49.3050
            4           2      0.2143      0.0143   1412.9111    703.0000     49.4476
            4           3      0.2143      0.0286   1415.2987    703.0000     49.5828
            4           4      0.2143      0.0429   1417.5283    703.0000     49.7097
            4           5      0.2143      0.0571   1419.5898    703.0000     49.8275
            4           6      0.2143      0.0714   1421.4765    703.0000     49.9358
            4           7      0.2143      0.0857   1423.1844    703.0000     50.0343
            4           8      0.2143      0.1000   1424.7129    703.0000     50.1227
            4           9      0.2143      0.1143   1426.0643    703.0000     50.2011
            4          10      0.2143      0.1286   1427.2439    703.0000     50.2697
            4          11      0.2143      0.1429   1428.2595    703.0000     50.3289
            4          12      0.2143      0.1571   1429.1215    703.0000     50.3792
            4          13      0.2143      0.1714   1429.8427    703.0000     50.4214
            4          14      0.2143      0.1857   1430.4376    703.0000     50.4563
            4          15      0.2143      0.2000   1430.9226    703.0000     50.4847
            5           1      0.2857      0.0000   1411.6188    703.0000     49.3747
            5           2      0.2857      0.0143   1414.3277    703.0000     49.5277
            5           3      0.2857      0.0286   1416.8682    703.0000     49.6720
            5           4      0.2857      0.0429   1419.2249    703.0000     49.8066
            5           5      0.2857      0.0571   1421.3858    703.0000     49.9306
            5           6      0.2857      0.0714   1423.3423    703.0000     50.0434
            5           7      0.2857      0.0857   1425.0892    703.0000     50.1445
            5           8      0.2857      0.1000   1426.6248    703.0000     50.2336
            5           9      0.2857      0.1143   1427.9508    703.0000     50.3109
            5          10      0.2857      0.1286   1429.0723    703.0000     50.3763
            5          11      0.2857      0.1429   1429.9976    703.0000     50.4305
            5          12      0.2857      0.1571   1430.7380    703.0000     50.4739
            5          13      0.2857      0.1714   1431.3079    703.0000     50.5073
            5          14      0.2857      0.1857   1431.7240    703.0000     50.5318
            5          15      0.2857      0.2000   1432.0058    703.0000     50.5483
            6           1      0.3571      0.0000   1412.2799    703.0000     49.4120
            6           2      0.3571      0.0143   1415.0826    703.0000     49.5705
            6           3      0.3571      0.0286   1417.7038    703.0000     49.7197
            6           4      0.3571      0.0429   1420.1270    703.0000     49.8583
            6           5      0.3571      0.0571   1422.3390    703.0000     49.9855
            6           6      0.3571      0.0714   1424.3306    703.0000     50.1005
            6           7      0.3571      0.0857   1426.0959    703.0000     50.2029
            6           8      0.3571      0.1000   1427.6329    703.0000     50.2923
            6           9      0.3571      0.1143   1428.9431    703.0000     50.3688
            6          10      0.3571      0.1286   1430.0317    703.0000     50.4325
            6          11      0.3571      0.1429   1430.9075    703.0000     50.4838
            6          12      0.3571      0.1571   1431.5825    703.0000     50.5234
            6          13      0.3571      0.1714   1432.0720    703.0000     50.5522
            6          14      0.3571      0.1857   1432.3942    703.0000     50.5712
            6          15      0.3571      0.2000   1432.5700    703.0000     50.5815
            7           1      0.4286      0.0000   1412.5905    703.0000     49.4295
            7           2      0.4286      0.0143   1415.4372    703.0000     49.5907
            7           3      0.4286      0.0286   1418.0961    703.0000     49.7421
            7           4      0.4286      0.0429   1420.5502    703.0000     49.8826
            7           5      0.4286      0.0571   1422.7860    703.0000     50.0113
            7           6      0.4286      0.0714   1424.7937    703.0000     50.1273
            7           7      0.4286      0.0857   1426.5672    703.0000     50.2303
            7           8      0.4286      0.1000   1428.1043    703.0000     50.3198
            7           9      0.4286      0.1143   1429.4066    703.0000     50.3959
            7          10      0.4286      0.1286   1430.4794    703.0000     50.4587
            7          11      0.4286      0.1429   1431.3317    703.0000     50.5087
            7          12      0.4286      0.1571   1431.9759    703.0000     50.5466
            7          13      0.4286      0.1714   1432.4278    703.0000     50.5731
            7          14      0.4286      0.1857   1432.7061    703.0000     50.5895
            7          15      0.4286      0.2000   1432.8325    703.0000     50.5970
            8           1      0.5000      0.0000   1412.6802    703.0000     49.4346
            8           2      0.5000      0.0143   1415.5396    703.0000     49.5965
            8           3      0.5000      0.0286   1418.2094    703.0000     49.7485
            8           4      0.5000      0.0429   1420.6724    703.0000     49.8896
            8           5      0.5000      0.0571   1422.9151    703.0000     50.0187
            8           6      0.5000      0.0714   1424.9273    703.0000     50.1351
            8           7      0.5000      0.0857   1426.7031    703.0000     50.2382
            8           8      0.5000      0.1000   1428.2402    703.0000     50.3277
            8           9      0.5000      0.1143   1429.5402    703.0000     50.4037
            8          10      0.5000      0.1286   1430.6084    703.0000     50.4663
            8          11      0.5000      0.1429   1431.4539    703.0000     50.5159
            8          12      0.5000      0.1571   1432.0892    703.0000     50.5532
            8          13      0.5000      0.1714   1432.5302    703.0000     50.5792
            8          14      0.5000      0.1857   1432.7959    703.0000     50.5948
            8          15      0.5000      0.2000   1432.9080    703.0000     50.6014
            9           1      0.5714      0.0000   1412.5906    703.0000     49.4295
            9           2      0.5714      0.0143   1415.4372    703.0000     49.5907
            9           3      0.5714      0.0286   1418.0962    703.0000     49.7421
            9           4      0.5714      0.0429   1420.5503    703.0000     49.8826
            9           5      0.5714      0.0571   1422.7861    703.0000     50.0113
            9           6      0.5714      0.0714   1424.7938    703.0000     50.1274
            9           7      0.5714      0.0857   1426.5673    703.0000     50.2303
            9           8      0.5714      0.1000   1428.1044    703.0000     50.3198
            9           9      0.5714      0.1143   1429.4067    703.0000     50.3959
            9          10      0.5714      0.1286   1430.4795    703.0000     50.4587
            9          11      0.5714      0.1429   1431.3318    703.0000     50.5087
            9          12      0.5714      0.1571   1431.9760    703.0000     50.5466
            9          13      0.5714      0.1714   1432.4278    703.0000     50.5732
            9          14      0.5714      0.1857   1432.7061    703.0000     50.5895
            9          15      0.5714      0.2000   1432.8325    703.0000     50.5970
           10           1      0.6429      0.0000   1412.2801    703.0000     49.4120
           10           2      0.6429      0.0143   1415.0828    703.0000     49.5705
           10           3      0.6429      0.0286   1417.7040    703.0000     49.7197
           10           4      0.6429      0.0429   1420.1272    703.0000     49.8583
           10           5      0.6429      0.0571   1422.3393    703.0000     49.9855
           10           6      0.6429      0.0714   1424.3309    703.0000     50.1005
           10           7      0.6429      0.0857   1426.0962    703.0000     50.2029
           10           8      0.6429      0.1000   1427.6331    703.0000     50.2923
           10           9      0.6429      0.1143   1428.9433    703.0000     50.3688
           10          10      0.6429      0.1286   1430.0319    703.0000     50.4325
           10          11      0.6429      0.1429   1430.9077    703.0000     50.4838
           10          12      0.6429      0.1571   1431.5827    703.0000     50.5234
           10          13      0.6429      0.1714   1432.0722    703.0000     50.5522
           10          14      0.6429      0.1857   1432.3943    703.0000     50.5712
           10          15      0.6429      0.2000   1432.5701    703.0000     50.5815
           11           1      0.7143      0.0000   1411.6191    703.0000     49.3748
           11           2      0.7143      0.0143   1414.3281    703.0000     49.5278
           11           3      0.7143      0.0286   1416.8686    703.0000     49.6721
           11           4      0.7143      0.0429   1419.2253    703.0000     49.8066
           11           5      0.7143      0.0571   1421.3862    703.0000     49.9307
           11           6      0.7143      0.0714   1423.3427    703.0000     50.0434
           11           7      0.7143      0.0857   1425.0896    703.0000     50.1445
           11           8      0.7143      0.1000   1426.6252    703.0000     50.2337
           11           9      0.7143      0.1143   1427.9512    703.0000     50.3109
           11          10      0.7143      0.1286   1429.0727    703.0000     50.3764
           11          11      0.7143      0.1429   1429.9980    703.0000     50.4305
           11          12      0.7143      0.1571   1430.7384    703.0000     50.4739
           11          13      0.7143      0.1714   1431.3082    703.0000     50.5073
           11          14      0.7143      0.1857   1431.7243    703.0000     50.5318
           11          15      0.7143      0.2000   1432.0061    703.0000     50.5483
           12           1      0.7857      0.0000   1410.3790    703.0000     49.3050
           12           2      0.7857      0.0143   1412.9118    703.0000     49.4477
           12           3      0.7857      0.0286   1415.2994    703.0000     49.5828
           12           4      0.7857      0.0429   1417.5291    703.0000     49.7097
           12           5      0.7857      0.0571   1419.5907    703.0000     49.8276
           12           6      0.7857      0.0714   1421.4773    703.0000     49.9359
           12           7      0.7857      0.0857   1423.1852    703.0000     50.0343
           12           8      0.7857      0.1000   1424.7138    703.0000     50.1227
           12           9      0.7857      0.1143   1426.0652    703.0000     50.2011
           12          10      0.7857      0.1286   1427.2447    703.0000     50.2697
           12          11      0.7857      0.1429   1428.2603    703.0000     50.3289
           12          12      0.7857      0.1571   1429.1223    703.0000     50.3793
           12          13      0.7857      0.1714   1429.8434    703.0000     50.4214
           12          14      0.7857      0.1857   1430.4382    703.0000     50.4563
           12          15      0.7857      0.2000   1430.9231    703.0000     50.4847
           13           1      0.8571      0.0000   1408.2327    703.0000     49.1848
           13           2      0.8571      0.0143   1410.4586    703.0000     49.3095
           13           3      0.8571      0.0286   1412.5762    703.0000     49.4287
           13           4      0.8571      0.0429   1414.5765    703.0000     49.5418
           13           5      0.8571      0.0571   1416.4533    703.0000     49.6484
           13           6      0.8571      0.0714   1418.2031    703.0000     49.7482
           13           7      0.8571      0.0857   1419.8253    703.0000     49.8410
           13           8      0.8571      0.1000   1421.3221    703.0000     49.9270
           13           9      0.8571      0.1143   1422.6984    703.0000     50.0062
           13          10      0.8571      0.1286   1423.9613    703.0000     50.0792
           13          11      0.8571      0.1429   1425.1202    703.0000     50.1463
           13          12      0.8571      0.1571   1426.1856    703.0000     50.2081
           13          13      0.8571      0.1714   1427.1691    703.0000     50.2653
           13          14      0.8571      0.1857   1428.0825    703.0000     50.3185
           13          15      0.8571      0.2000   1428.9373    703.0000     50.3684
           14           1      0.9286      0.0000   1404.8055    703.0000     48.9940
           14           2      0.9286      0.0143   1406.5357    703.0000     49.0901
           14           3      0.9286      0.0286   1408.2042    703.0000     49.1832
           14           4      0.9286      0.0429   1409.8076    703.0000     49.2730
           14           5      0.9286      0.0571   1411.3453    703.0000     49.3593
           14           6      0.9286      0.0714   1412.8198    703.0000     49.4425
           14           7      0.9286      0.0857   1414.2372    703.0000     49.5226
           14           8      0.9286      0.1000   1415.6070    703.0000     49.6003
           14           9      0.9286      0.1143   1416.9422    703.0000     49.6763
           14          10      0.9286      0.1286   1418.2589    703.0000     49.7514
           14          11      0.9286      0.1429   1419.5764    703.0000     49.8268
           14          12      0.9286      0.1571   1420.9158    703.0000     49.9036
           14          13      0.9286      0.1714   1422.2986    703.0000     49.9832
           14          14      0.9286      0.1857   1423.7439    703.0000     50.0666
           14          15      0.9286      0.2000   1425.2639    703.0000     50.1546
           15           1      1.0000      0.0000   1399.8715    703.0000     48.7219
           15           2      1.0000      0.0143   1400.8740    703.0000     48.7769
           15           3      1.0000      0.0286   1401.8515    703.0000     48.8307
           15           4      1.0000      0.0429   1402.8041    703.0000     48.8832
           15           5      1.0000      0.0571   1403.7353    703.0000     48.9347
           15           6      1.0000      0.0714   1404.6521    703.0000     48.9855
           15           7      1.0000      0.0857   1405.5659    703.0000     49.0362
           15           8      1.0000      0.1000   1406.4941    703.0000     49.0878
           15           9      1.0000      0.1143   1407.4616    703.0000     49.1417
           15          10      1.0000      0.1286   1408.5033    703.0000     49.1999
           15          11      1.0000      0.1429   1409.6680    703.0000     49.2651
           15          12      1.0000      0.1571   1411.0238    703.0000     49.3413
           15          13      1.0000      0.1714   1412.6658    703.0000     49.4338
           15          14      1.0000      0.1857   1414.7283    703.0000     49.5504
           15          15      1.0000      0.2000   1417.4017    703.0000     49.7024
