 ====================================================================================
               Transient state solution for a 2D rectangular plate
                    for applications in steel reheating
                 e.g. Reheating furnaces for rolling processing
 ====================================================================================
 Author: Dickson Alves de Souza

 Based on lectures by professor Roberto Parreiras Tavares

 and book Numerical Heat Transfer and Fluid Flow
 by Suhas V. Patankar (1980)

 Federal University of Minas Gerais (UFMG)
 October 26th, 2017
 ====================================================================================
                              Input parameters:

 Lenght in X direction (meters):           1.0000
 Lenght in Y direction (meters):           0.2000
 Nodes in X direction:                         15
 Nodes in Y direction:                         15
 ====================================================================================

                       STAGE                1/  5
                       START Time:         0.0000
                       END Time:        1140.0000
                       Iterations:              910

 ====================================================================================
 Temperature of fluid at left face (T left):             1223.1500
 Temperature of fluid at right face (T right):           1223.1500
 Temperature of fluid at bottom face (T bottom):         1223.1500
 Temperature of fluid at top face (T top):               1223.1500
 ------------------------------------------------------------------------------------
 Heat transfer coefficient at left face (H left):          50.0000
 Heat transfer coefficient at right face (H right):        50.0000
 Heat transfer coefficient at bottom face (H bottom):       8.0000
 Heat transfer coefficient at top face (H top):           150.0000
 ====================================================================================


 ====================================================================================

                       STAGE                2/  5
                       START Time:      1140.0000
                       END Time:        3060.0000
                       Iterations:              910

 ====================================================================================
 Temperature of fluid at left face (T left):             1423.1500
 Temperature of fluid at right face (T right):           1423.1500
 Temperature of fluid at bottom face (T bottom):         1423.1500
 Temperature of fluid at top face (T top):               1423.1500
 ------------------------------------------------------------------------------------
 Heat transfer coefficient at left face (H left):          50.0000
 Heat transfer coefficient at right face (H right):        50.0000
 Heat transfer coefficient at bottom face (H bottom):       8.0000
 Heat transfer coefficient at top face (H top):           150.0000
 ====================================================================================


 ====================================================================================

                       STAGE                3/  5
                       START Time:      3060.0000
                       END Time:        4980.0000
                       Iterations:              910

 ====================================================================================
 Temperature of fluid at left face (T left):             1513.1500
 Temperature of fluid at right face (T right):           1513.1500
 Temperature of fluid at bottom face (T bottom):         1513.1500
 Temperature of fluid at top face (T top):               1513.1500
 ------------------------------------------------------------------------------------
 Heat transfer coefficient at left face (H left):          50.0000
 Heat transfer coefficient at right face (H right):        50.0000
 Heat transfer coefficient at bottom face (H bottom):       8.0000
 Heat transfer coefficient at top face (H top):           150.0000
 ====================================================================================


 ====================================================================================

                       STAGE                4/  5
                       START Time:      4980.0000
                       END Time:        8400.0000
                       Iterations:              910

 ====================================================================================
 Temperature of fluid at left face (T left):             1503.1500
 Temperature of fluid at right face (T right):           1503.1500
 Temperature of fluid at bottom face (T bottom):         1503.1500
 Temperature of fluid at top face (T top):               1523.1500
 ------------------------------------------------------------------------------------
 Heat transfer coefficient at left face (H left):          50.0000
 Heat transfer coefficient at right face (H right):        50.0000
 Heat transfer coefficient at bottom face (H bottom):       8.0000
 Heat transfer coefficient at top face (H top):           150.0000
 ====================================================================================


 ====================================================================================

                       STAGE                5/  5
                       START Time:      8400.0000
                       END Time:       18400.0000
                       Iterations:              910

 ====================================================================================
 Temperature of fluid at left face (T left):             1393.1500
 Temperature of fluid at right face (T right):           1393.1500
 Temperature of fluid at bottom face (T bottom):         1393.1500
 Temperature of fluid at top face (T top):               1433.1500
 ------------------------------------------------------------------------------------
 Heat transfer coefficient at left face (H left):          50.0000
 Heat transfer coefficient at right face (H right):        50.0000
 Heat transfer coefficient at bottom face (H bottom):       8.0000
 Heat transfer coefficient at top face (H top):           150.0000
 ====================================================================================


 SOLUTION of LINEAR SYSTEM: TDMA (tri-diagonal matrix algorithm)
      ADI approach employed in solution.
 Tolerance:       0.0010

 ====================================================================================
                    Calculation Results
 Current time:    10400.000000000000       seconds
 Maximum Temperature :    1441.2174418982963
 Minimum Temperature :    1402.8824557428748
 Average(algebraic, non-weigthed) Temperature :    1428.7285497273529
 ====================================================================================
            I           J        X(m)        Y(m)        T(K)  Cp(J/kg.K) K(W/sq-m.K)
 ====================================================================================
            1           1      0.0000      0.0000   1402.8825    703.0000     48.8876
            1           2      0.0000      0.0143   1404.3121    703.0000     48.9666
            1           3      0.0000      0.0286   1405.6557    703.0000     49.0412
            1           4      0.0000      0.0429   1406.9075    703.0000     49.1108
            1           5      0.0000      0.0571   1408.0661    703.0000     49.1755
            1           6      0.0000      0.0714   1409.1348    703.0000     49.2353
            1           7      0.0000      0.0857   1410.1230    703.0000     49.2906
            1           8      0.0000      0.1000   1411.0469    703.0000     49.3426
            1           9      0.0000      0.1143   1411.9316    703.0000     49.3924
            1          10      0.0000      0.1286   1412.8137    703.0000     49.4421
            1          11      0.0000      0.1429   1413.7447    703.0000     49.4947
            1          12      0.0000      0.1571   1414.7968    703.0000     49.5543
            1          13      0.0000      0.1714   1416.0706    703.0000     49.6266
            1          14      0.0000      0.1857   1417.7067    703.0000     49.7198
            1          15      0.0000      0.2000   1419.9036    703.0000     49.8455
            2           1      0.0714      0.0000   1409.9646    703.0000     49.2818
            2           2      0.0714      0.0143   1412.4248    703.0000     49.4202
            2           3      0.0714      0.0286   1414.7177    703.0000     49.5498
            2           4      0.0714      0.0429   1416.8299    703.0000     49.6699
            2           5      0.0714      0.0571   1418.7532    703.0000     49.7796
            2           6      0.0714      0.0714   1420.4845    703.0000     49.8788
            2           7      0.0714      0.0857   1422.0263    703.0000     49.9675
            2           8      0.0714      0.1000   1423.3867    703.0000     50.0460
            2           9      0.0714      0.1143   1424.5792    703.0000     50.1149
            2          10      0.0714      0.1286   1425.6231    703.0000     50.1754
            2          11      0.0714      0.1429   1426.5424    703.0000     50.2288
            2          12      0.0714      0.1571   1427.3650    703.0000     50.2767
            2          13      0.0714      0.1714   1428.1214    703.0000     50.3208
            2          14      0.0714      0.1857   1428.8416    703.0000     50.3628
            2          15      0.0714      0.2000   1429.5505    703.0000     50.4043
            3           1      0.1429      0.0000   1414.6916    703.0000     49.5484
            3           2      0.1429      0.0143   1417.8301    703.0000     49.7269
            3           3      0.1429      0.0286   1420.7270    703.0000     49.8928
            3           4      0.1429      0.0429   1423.3614    703.0000     50.0445
            3           5      0.1429      0.0571   1425.7181    703.0000     50.1810
            3           6      0.1429      0.0714   1427.7869    703.0000     50.3013
            3           7      0.1429      0.0857   1429.5633    703.0000     50.4050
            3           8      0.1429      0.1000   1431.0479    703.0000     50.4920
            3           9      0.1429      0.1143   1432.2467    703.0000     50.5625
            3          10      0.1429      0.1286   1433.1702    703.0000     50.6169
            3          11      0.1429      0.1429   1433.8336    703.0000     50.6560
            3          12      0.1429      0.1571   1434.2560    703.0000     50.6810
            3          13      0.1429      0.1714   1434.4595    703.0000     50.6930
            3          14      0.1429      0.1857   1434.4690    703.0000     50.6935
            3          15      0.1429      0.2000   1434.3108    703.0000     50.6842
            4           1      0.2143      0.0000   1417.4452    703.0000     49.7049
            4           2      0.2143      0.0143   1420.9756    703.0000     49.9070
            4           3      0.2143      0.0286   1424.2144    703.0000     50.0938
            4           4      0.2143      0.0429   1427.1363    703.0000     50.2634
            4           5      0.2143      0.0571   1429.7215    703.0000     50.4143
            4           6      0.2143      0.0714   1431.9564    703.0000     50.5454
            4           7      0.2143      0.0857   1433.8327    703.0000     50.6560
            4           8      0.2143      0.1000   1435.3484    703.0000     50.7456
            4           9      0.2143      0.1143   1436.5067    703.0000     50.8142
            4          10      0.2143      0.1286   1437.3168    703.0000     50.8623
            4          11      0.2143      0.1429   1437.7927    703.0000     50.8906
            4          12      0.2143      0.1571   1437.9539    703.0000     50.9002
            4          13      0.2143      0.1714   1437.8241    703.0000     50.8925
            4          14      0.2143      0.1857   1437.4319    703.0000     50.8692
            4          15      0.2143      0.2000   1436.8095    703.0000     50.8322
            5           1      0.2857      0.0000   1418.8819    703.0000     49.7870
            5           2      0.2857      0.0143   1422.6159    703.0000     50.0015
            5           3      0.2857      0.0286   1426.0306    703.0000     50.1991
            5           4      0.2857      0.0429   1429.0982    703.0000     50.3778
            5           5      0.2857      0.0571   1431.7969    703.0000     50.5360
            5           6      0.2857      0.0714   1434.1111    703.0000     50.6724
            5           7      0.2857      0.0857   1436.0312    703.0000     50.7860
            5           8      0.2857      0.1000   1437.5541    703.0000     50.8764
            5           9      0.2857      0.1143   1438.6826    703.0000     50.9436
            5          10      0.2857      0.1286   1439.4255    703.0000     50.9879
            5          11      0.2857      0.1429   1439.7975    703.0000     51.0102
            5          12      0.2857      0.1571   1439.8188    703.0000     51.0114
            5          13      0.2857      0.1714   1439.5153    703.0000     50.9933
            5          14      0.2857      0.1857   1438.9177    703.0000     50.9577
            5          15      0.2857      0.2000   1438.0617    703.0000     50.9066
            6           1      0.3571      0.0000   1419.5593    703.0000     49.8258
            6           2      0.3571      0.0143   1423.3891    703.0000     50.0461
            6           3      0.3571      0.0286   1426.8862    703.0000     50.2488
            6           4      0.3571      0.0429   1430.0217    703.0000     50.4319
            6           5      0.3571      0.0571   1432.7726    703.0000     50.5935
            6           6      0.3571      0.0714   1435.1226    703.0000     50.7322
            6           7      0.3571      0.0857   1437.0617    703.0000     50.8472
            6           8      0.3571      0.1000   1438.5862    703.0000     50.9379
            6           9      0.3571      0.1143   1439.6989    703.0000     51.0043
            6          10      0.3571      0.1286   1440.4087    703.0000     51.0467
            6          11      0.3571      0.1429   1440.7306    703.0000     51.0660
            6          12      0.3571      0.1571   1440.6856    703.0000     51.0633
            6          13      0.3571      0.1714   1440.3003    703.0000     51.0402
            6          14      0.3571      0.1857   1439.6069    703.0000     50.9988
            6          15      0.3571      0.2000   1438.6423    703.0000     50.9412
            7           1      0.4286      0.0000   1419.8403    703.0000     49.8419
            7           2      0.4286      0.0143   1423.7098    703.0000     50.0646
            7           3      0.4286      0.0286   1427.2410    703.0000     50.2695
            7           4      0.4286      0.0429   1430.4044    703.0000     50.4543
            7           5      0.4286      0.0571   1433.1768    703.0000     50.6173
            7           6      0.4286      0.0714   1435.5415    703.0000     50.7570
            7           7      0.4286      0.0857   1437.4881    703.0000     50.8725
            7           8      0.4286      0.1000   1439.0130    703.0000     50.9633
            7           9      0.4286      0.1143   1440.1188    703.0000     51.0294
            7          10      0.4286      0.1286   1440.8146    703.0000     51.0710
            7          11      0.4286      0.1429   1441.1156    703.0000     51.0890
            7          12      0.4286      0.1571   1441.0430    703.0000     51.0847
            7          13      0.4286      0.1714   1440.6238    703.0000     51.0596
            7          14      0.4286      0.1857   1439.8908    703.0000     51.0157
            7          15      0.4286      0.2000   1438.8815    703.0000     50.9555
            8           1      0.5000      0.0000   1419.9148    703.0000     49.8462
            8           2      0.5000      0.0143   1423.7948    703.0000     50.0695
            8           3      0.5000      0.0286   1427.3350    703.0000     50.2750
            8           4      0.5000      0.0429   1430.5059    703.0000     50.4603
            8           5      0.5000      0.0571   1433.2839    703.0000     50.6236
            8           6      0.5000      0.0714   1435.6524    703.0000     50.7636
            8           7      0.5000      0.0857   1437.6011    703.0000     50.8792
            8           8      0.5000      0.1000   1439.1260    703.0000     50.9701
            8           9      0.5000      0.1143   1440.2300    703.0000     51.0360
            8          10      0.5000      0.1286   1440.9221    703.0000     51.0774
            8          11      0.5000      0.1429   1441.2174    703.0000     51.0951
            8          12      0.5000      0.1571   1441.1375    703.0000     51.0903
            8          13      0.5000      0.1714   1440.7094    703.0000     51.0647
            8          14      0.5000      0.1857   1439.9658    703.0000     51.0202
            8          15      0.5000      0.2000   1438.9447    703.0000     50.9593
            9           1      0.5714      0.0000   1419.8403    703.0000     49.8419
            9           2      0.5714      0.0143   1423.7098    703.0000     50.0646
            9           3      0.5714      0.0286   1427.2411    703.0000     50.2695
            9           4      0.5714      0.0429   1430.4045    703.0000     50.4543
            9           5      0.5714      0.0571   1433.1769    703.0000     50.6173
            9           6      0.5714      0.0714   1435.5415    703.0000     50.7570
            9           7      0.5714      0.0857   1437.4882    703.0000     50.8725
            9           8      0.5714      0.1000   1439.0131    703.0000     50.9633
            9           9      0.5714      0.1143   1440.1189    703.0000     51.0294
            9          10      0.5714      0.1286   1440.8147    703.0000     51.0710
            9          11      0.5714      0.1429   1441.1156    703.0000     51.0890
            9          12      0.5714      0.1571   1441.0430    703.0000     51.0847
            9          13      0.5714      0.1714   1440.6239    703.0000     51.0596
            9          14      0.5714      0.1857   1439.8908    703.0000     51.0157
            9          15      0.5714      0.2000   1438.8815    703.0000     50.9555
           10           1      0.6429      0.0000   1419.5595    703.0000     49.8258
           10           2      0.6429      0.0143   1423.3892    703.0000     50.0461
           10           3      0.6429      0.0286   1426.8864    703.0000     50.2488
           10           4      0.6429      0.0429   1430.0218    703.0000     50.4319
           10           5      0.6429      0.0571   1432.7728    703.0000     50.5935
           10           6      0.6429      0.0714   1435.1228    703.0000     50.7322
           10           7      0.6429      0.0857   1437.0619    703.0000     50.8472
           10           8      0.6429      0.1000   1438.5864    703.0000     50.9379
           10           9      0.6429      0.1143   1439.6991    703.0000     51.0043
           10          10      0.6429      0.1286   1440.4089    703.0000     51.0467
           10          11      0.6429      0.1429   1440.7308    703.0000     51.0660
           10          12      0.6429      0.1571   1440.6858    703.0000     51.0633
           10          13      0.6429      0.1714   1440.3005    703.0000     51.0402
           10          14      0.6429      0.1857   1439.6070    703.0000     50.9988
           10          15      0.6429      0.2000   1438.6424    703.0000     50.9412
           11           1      0.7143      0.0000   1418.8822    703.0000     49.7870
           11           2      0.7143      0.0143   1422.6162    703.0000     50.0015
           11           3      0.7143      0.0286   1426.0310    703.0000     50.1991
           11           4      0.7143      0.0429   1429.0986    703.0000     50.3779
           11           5      0.7143      0.0571   1431.7974    703.0000     50.5361
           11           6      0.7143      0.0714   1434.1115    703.0000     50.6724
           11           7      0.7143      0.0857   1436.0317    703.0000     50.7860
           11           8      0.7143      0.1000   1437.5546    703.0000     50.8765
           11           9      0.7143      0.1143   1438.6830    703.0000     50.9437
           11          10      0.7143      0.1286   1439.4259    703.0000     50.9880
           11          11      0.7143      0.1429   1439.7979    703.0000     51.0102
           11          12      0.7143      0.1571   1439.8192    703.0000     51.0115
           11          13      0.7143      0.1714   1439.5157    703.0000     50.9933
           11          14      0.7143      0.1857   1438.9181    703.0000     50.9577
           11          15      0.7143      0.2000   1438.0620    703.0000     50.9067
           12           1      0.7857      0.0000   1417.4458    703.0000     49.7050
           12           2      0.7857      0.0143   1420.9763    703.0000     49.9071
           12           3      0.7857      0.0286   1424.2152    703.0000     50.0939
           12           4      0.7857      0.0429   1427.1371    703.0000     50.2634
           12           5      0.7857      0.0571   1429.7225    703.0000     50.4144
           12           6      0.7857      0.0714   1431.9573    703.0000     50.5455
           12           7      0.7857      0.0857   1433.8337    703.0000     50.6560
           12           8      0.7857      0.1000   1435.3493    703.0000     50.7456
           12           9      0.7857      0.1143   1436.5077    703.0000     50.8143
           12          10      0.7857      0.1286   1437.3177    703.0000     50.8624
           12          11      0.7857      0.1429   1437.7936    703.0000     50.8907
           12          12      0.7857      0.1571   1437.9547    703.0000     50.9003
           12          13      0.7857      0.1714   1437.8249    703.0000     50.8926
           12          14      0.7857      0.1857   1437.4325    703.0000     50.8692
           12          15      0.7857      0.2000   1436.8100    703.0000     50.8322
           13           1      0.8571      0.0000   1414.6927    703.0000     49.5484
           13           2      0.8571      0.0143   1417.8313    703.0000     49.7270
           13           3      0.8571      0.0286   1420.7283    703.0000     49.8928
           13           4      0.8571      0.0429   1423.3629    703.0000     50.0446
           13           5      0.8571      0.0571   1425.7196    703.0000     50.1810
           13           6      0.8571      0.0714   1427.7885    703.0000     50.3014
           13           7      0.8571      0.0857   1429.5649    703.0000     50.4051
           13           8      0.8571      0.1000   1431.0495    703.0000     50.4921
           13           9      0.8571      0.1143   1432.2482    703.0000     50.5626
           13          10      0.8571      0.1286   1433.1717    703.0000     50.6170
           13          11      0.8571      0.1429   1433.8351    703.0000     50.6561
           13          12      0.8571      0.1571   1434.2573    703.0000     50.6810
           13          13      0.8571      0.1714   1434.4608    703.0000     50.6931
           13          14      0.8571      0.1857   1434.4701    703.0000     50.6936
           13          15      0.8571      0.2000   1434.3117    703.0000     50.6842
           14           1      0.9286      0.0000   1409.9653    703.0000     49.2818
           14           2      0.9286      0.0143   1412.4257    703.0000     49.4202
           14           3      0.9286      0.0286   1414.7187    703.0000     49.5499
           14           4      0.9286      0.0429   1416.8310    703.0000     49.6699
           14           5      0.9286      0.0571   1418.7543    703.0000     49.7797
           14           6      0.9286      0.0714   1420.4856    703.0000     49.8789
           14           7      0.9286      0.0857   1422.0274    703.0000     49.9676
           14           8      0.9286      0.1000   1423.3878    703.0000     50.0460
           14           9      0.9286      0.1143   1424.5804    703.0000     50.1150
           14          10      0.9286      0.1286   1425.6242    703.0000     50.1755
           14          11      0.9286      0.1429   1426.5434    703.0000     50.2289
           14          12      0.9286      0.1571   1427.3659    703.0000     50.2768
           14          13      0.9286      0.1714   1428.1222    703.0000     50.3209
           14          14      0.9286      0.1857   1428.8423    703.0000     50.3629
           14          15      0.9286      0.2000   1429.5511    703.0000     50.4043
           15           1      1.0000      0.0000   1402.8828    703.0000     48.8876
           15           2      1.0000      0.0143   1404.3125    703.0000     48.9667
           15           3      1.0000      0.0286   1405.6561    703.0000     49.0412
           15           4      1.0000      0.0429   1406.9079    703.0000     49.1109
           15           5      1.0000      0.0571   1408.0665    703.0000     49.1755
           15           6      1.0000      0.0714   1409.1353    703.0000     49.2353
           15           7      1.0000      0.0857   1410.1234    703.0000     49.2907
           15           8      1.0000      0.1000   1411.0473    703.0000     49.3426
           15           9      1.0000      0.1143   1411.9321    703.0000     49.3924
           15          10      1.0000      0.1286   1412.8141    703.0000     49.4421
           15          11      1.0000      0.1429   1413.7452    703.0000     49.4948
           15          12      1.0000      0.1571   1414.7972    703.0000     49.5543
           15          13      1.0000      0.1714   1416.0709    703.0000     49.6267
           15          14      1.0000      0.1857   1417.7070    703.0000     49.7199
           15          15      1.0000      0.2000   1419.9039    703.0000     49.8455
