 ====================================================================================
               Transient state solution for a 2D rectangular plate
                    for applications in steel reheating
                 e.g. Reheating furnaces for rolling processing
 ====================================================================================
 Author: Dickson Alves de Souza

 Based on lectures by professor Roberto Parreiras Tavares

 and book Numerical Heat Transfer and Fluid Flow
 by Suhas V. Patankar (1980)

 Federal University of Minas Gerais (UFMG)
 October 26th, 2017
 ====================================================================================
                              Input parameters:

 Lenght in X direction (meters):           1.0000
 Lenght in Y direction (meters):           0.2000
 Nodes in X direction:                         15
 Nodes in Y direction:                         15
 ====================================================================================

                       STAGE                1/  5
                       START Time:         0.0000
                       END Time:        1140.0000
                       Iterations:              865

 ====================================================================================
 Temperature of fluid at left face (T left):             1223.1500
 Temperature of fluid at right face (T right):           1223.1500
 Temperature of fluid at bottom face (T bottom):         1223.1500
 Temperature of fluid at top face (T top):               1223.1500
 ------------------------------------------------------------------------------------
 Heat transfer coefficient at left face (H left):          50.0000
 Heat transfer coefficient at right face (H right):        50.0000
 Heat transfer coefficient at bottom face (H bottom):       8.0000
 Heat transfer coefficient at top face (H top):           150.0000
 ====================================================================================


 ====================================================================================

                       STAGE                2/  5
                       START Time:      1140.0000
                       END Time:        3060.0000
                       Iterations:              865

 ====================================================================================
 Temperature of fluid at left face (T left):             1423.1500
 Temperature of fluid at right face (T right):           1423.1500
 Temperature of fluid at bottom face (T bottom):         1423.1500
 Temperature of fluid at top face (T top):               1423.1500
 ------------------------------------------------------------------------------------
 Heat transfer coefficient at left face (H left):          50.0000
 Heat transfer coefficient at right face (H right):        50.0000
 Heat transfer coefficient at bottom face (H bottom):       8.0000
 Heat transfer coefficient at top face (H top):           150.0000
 ====================================================================================


 ====================================================================================

                       STAGE                3/  5
                       START Time:      3060.0000
                       END Time:        4980.0000
                       Iterations:              865

 ====================================================================================
 Temperature of fluid at left face (T left):             1513.1500
 Temperature of fluid at right face (T right):           1513.1500
 Temperature of fluid at bottom face (T bottom):         1513.1500
 Temperature of fluid at top face (T top):               1513.1500
 ------------------------------------------------------------------------------------
 Heat transfer coefficient at left face (H left):          50.0000
 Heat transfer coefficient at right face (H right):        50.0000
 Heat transfer coefficient at bottom face (H bottom):       8.0000
 Heat transfer coefficient at top face (H top):           150.0000
 ====================================================================================


 ====================================================================================

                       STAGE                4/  5
                       START Time:      4980.0000
                       END Time:        8400.0000
                       Iterations:              865

 ====================================================================================
 Temperature of fluid at left face (T left):             1503.1500
 Temperature of fluid at right face (T right):           1503.1500
 Temperature of fluid at bottom face (T bottom):         1503.1500
 Temperature of fluid at top face (T top):               1523.1500
 ------------------------------------------------------------------------------------
 Heat transfer coefficient at left face (H left):          50.0000
 Heat transfer coefficient at right face (H right):        50.0000
 Heat transfer coefficient at bottom face (H bottom):       8.0000
 Heat transfer coefficient at top face (H top):           150.0000
 ====================================================================================


 ====================================================================================

                       STAGE                5/  5
                       START Time:      8400.0000
                       END Time:       18400.0000
                       Iterations:              865

 ====================================================================================
 Temperature of fluid at left face (T left):             1393.1500
 Temperature of fluid at right face (T right):           1393.1500
 Temperature of fluid at bottom face (T bottom):         1393.1500
 Temperature of fluid at top face (T top):               1433.1500
 ------------------------------------------------------------------------------------
 Heat transfer coefficient at left face (H left):          50.0000
 Heat transfer coefficient at right face (H right):        50.0000
 Heat transfer coefficient at bottom face (H bottom):       8.0000
 Heat transfer coefficient at top face (H top):           150.0000
 ====================================================================================


 SOLUTION of LINEAR SYSTEM: TDMA (tri-diagonal matrix algorithm)
      ADI approach employed in solution.
 Tolerance:       0.0010

 ====================================================================================
                    Calculation Results
 Current time:    9800.0000000000000       seconds
 Maximum Temperature :    1453.5820160630049
 Minimum Temperature :    1407.4396443890928
 Average(algebraic, non-weigthed) Temperature :    1439.2493581950534
 ====================================================================================
            I           J        X(m)        Y(m)        T(K)  Cp(J/kg.K) K(W/sq-m.K)
 ====================================================================================
            1           1      0.0000      0.0000   1407.4396    703.0000     49.1405
            1           2      0.0000      0.0143   1409.5147    703.0000     49.2565
            1           3      0.0000      0.0286   1411.4103    703.0000     49.3630
            1           4      0.0000      0.0429   1413.1122    703.0000     49.4590
            1           5      0.0000      0.0571   1414.6125    703.0000     49.5439
            1           6      0.0000      0.0714   1415.9099    703.0000     49.6175
            1           7      0.0000      0.0857   1417.0107    703.0000     49.6802
            1           8      0.0000      0.1000   1417.9297    703.0000     49.7326
            1           9      0.0000      0.1143   1418.6927    703.0000     49.7762
            1          10      0.0000      0.1286   1419.3379    703.0000     49.8131
            1          11      0.0000      0.1429   1419.9205    703.0000     49.8465
            1          12      0.0000      0.1571   1420.5181    703.0000     49.8808
            1          13      0.0000      0.1714   1421.2383    703.0000     49.9221
            1          14      0.0000      0.1857   1422.2312    703.0000     49.9793
            1          15      0.0000      0.2000   1423.7066    703.0000     50.0644
            2           1      0.0714      0.0000   1417.5302    703.0000     49.7098
            2           2      0.0714      0.0143   1421.0582    703.0000     49.9118
            2           3      0.0714      0.0286   1424.2614    703.0000     50.0965
            2           4      0.0714      0.0429   1427.1137    703.0000     50.2621
            2           5      0.0714      0.0571   1429.5969    703.0000     50.4070
            2           6      0.0714      0.0714   1431.7013    703.0000     50.5304
            2           7      0.0714      0.0857   1433.4250    703.0000     50.6319
            2           8      0.0714      0.1000   1434.7746    703.0000     50.7116
            2           9      0.0714      0.1143   1435.7648    703.0000     50.7702
            2          10      0.0714      0.1286   1436.4178    703.0000     50.8089
            2          11      0.0714      0.1429   1436.7638    703.0000     50.8295
            2          12      0.0714      0.1571   1436.8393    703.0000     50.8340
            2          13      0.0714      0.1714   1436.6861    703.0000     50.8249
            2          14      0.0714      0.1857   1436.3486    703.0000     50.8048
            2          15      0.0714      0.2000   1435.8688    703.0000     50.7764
            3           1      0.1429      0.0000   1423.5965    703.0000     50.0581
            3           2      0.1429      0.0143   1427.9892    703.0000     50.3131
            3           3      0.1429      0.0286   1431.9533    703.0000     50.5452
            3           4      0.1429      0.0429   1435.4540    703.0000     50.7518
            3           5      0.1429      0.0571   1438.4652    703.0000     50.9307
            3           6      0.1429      0.0714   1440.9695    703.0000     51.0803
            3           7      0.1429      0.0857   1442.9580    703.0000     51.1996
            3           8      0.1429      0.1000   1444.4298    703.0000     51.2882
            3           9      0.1429      0.1143   1445.3921    703.0000     51.3462
            3          10      0.1429      0.1286   1445.8594    703.0000     51.3745
            3          11      0.1429      0.1429   1445.8537    703.0000     51.3741
            3          12      0.1429      0.1571   1445.4035    703.0000     51.3469
            3          13      0.1429      0.1714   1444.5436    703.0000     51.2950
            3          14      0.1429      0.1857   1443.3145    703.0000     51.2210
            3          15      0.1429      0.2000   1441.7614    703.0000     51.1277
            4           1      0.2143      0.0000   1426.6783    703.0000     50.2367
            4           2      0.2143      0.0143   1431.5077    703.0000     50.5190
            4           3      0.2143      0.0286   1435.8512    703.0000     50.7753
            4           4      0.2143      0.0429   1439.6692    703.0000     51.0025
            4           5      0.2143      0.0571   1442.9314    703.0000     51.1980
            4           6      0.2143      0.0714   1445.6165    703.0000     51.3598
            4           7      0.2143      0.0857   1447.7125    703.0000     51.4867
            4           8      0.2143      0.1000   1449.2155    703.0000     51.5780
            4           9      0.2143      0.1143   1450.1304    703.0000     51.6337
            4          10      0.2143      0.1286   1450.4701    703.0000     51.6544
            4          11      0.2143      0.1429   1450.2556    703.0000     51.6414
            4          12      0.2143      0.1571   1449.5156    703.0000     51.5963
            4          13      0.2143      0.1714   1448.2867    703.0000     51.5215
            4          14      0.2143      0.1857   1446.6130    703.0000     51.4201
            4          15      0.2143      0.2000   1444.5458    703.0000     51.2952
            5           1      0.2857      0.0000   1428.0465    703.0000     50.3164
            5           2      0.2857      0.0143   1433.0692    703.0000     50.6109
            5           3      0.2857      0.0286   1437.5797    703.0000     50.8780
            5           4      0.2857      0.0429   1441.5359    703.0000     51.1142
            5           5      0.2857      0.0571   1444.9059    703.0000     51.3169
            5           6      0.2857      0.0714   1447.6667    703.0000     51.4839
            5           7      0.2857      0.0857   1449.8049    703.0000     51.6139
            5           8      0.2857      0.1000   1451.3158    703.0000     51.7061
            5           9      0.2857      0.1143   1452.2035    703.0000     51.7603
            5          10      0.2857      0.1286   1452.4809    703.0000     51.7773
            5          11      0.2857      0.1429   1452.1691    703.0000     51.7582
            5          12      0.2857      0.1571   1451.2977    703.0000     51.7050
            5          13      0.2857      0.1714   1449.9046    703.0000     51.6200
            5          14      0.2857      0.1857   1448.0362    703.0000     51.5063
            5          15      0.2857      0.2000   1445.7466    703.0000     51.3676
            6           1      0.3571      0.0000   1428.5816    703.0000     50.3477
            6           2      0.3571      0.0143   1433.6799    703.0000     50.6469
            6           3      0.3571      0.0286   1438.2554    703.0000     50.9182
            6           4      0.3571      0.0429   1442.2654    703.0000     51.1580
            6           5      0.3571      0.0571   1445.6769    703.0000     51.3634
            6           6      0.3571      0.0714   1448.4666    703.0000     51.5325
            6           7      0.3571      0.0857   1450.6203    703.0000     51.6636
            6           8      0.3571      0.1000   1452.1333    703.0000     51.7560
            6           9      0.3571      0.1143   1453.0093    703.0000     51.8097
            6          10      0.3571      0.1286   1453.2614    703.0000     51.8251
            6          11      0.3571      0.1429   1452.9107    703.0000     51.8036
            6          12      0.3571      0.1571   1451.9875    703.0000     51.7471
            6          13      0.3571      0.1714   1450.5303    703.0000     51.6581
            6          14      0.3571      0.1857   1448.5862    703.0000     51.5397
            6          15      0.3571      0.2000   1446.2105    703.0000     51.3957
            7           1      0.4286      0.0000   1428.7617    703.0000     50.3582
            7           2      0.4286      0.0143   1433.8855    703.0000     50.6591
            7           3      0.4286      0.0286   1438.4829    703.0000     50.9317
            7           4      0.4286      0.0429   1442.5109    703.0000     51.1727
            7           5      0.4286      0.0571   1445.9364    703.0000     51.3791
            7           6      0.4286      0.0714   1448.7357    703.0000     51.5488
            7           7      0.4286      0.0857   1450.8946    703.0000     51.6803
            7           8      0.4286      0.1000   1452.4081    703.0000     51.7729
            7           9      0.4286      0.1143   1453.2801    703.0000     51.8263
            7          10      0.4286      0.1286   1453.5235    703.0000     51.8412
            7          11      0.4286      0.1429   1453.1597    703.0000     51.8189
            7          12      0.4286      0.1571   1452.2189    703.0000     51.7613
            7          13      0.4286      0.1714   1450.7401    703.0000     51.6709
            7          14      0.4286      0.1857   1448.7705    703.0000     51.5509
            7          15      0.4286      0.2000   1446.3660    703.0000     51.4051
            8           1      0.5000      0.0000   1428.8019    703.0000     50.3605
            8           2      0.5000      0.0143   1433.9313    703.0000     50.6618
            8           3      0.5000      0.0286   1438.5336    703.0000     50.9348
            8           4      0.5000      0.0429   1442.5657    703.0000     51.1760
            8           5      0.5000      0.0571   1445.9943    703.0000     51.3826
            8           6      0.5000      0.0714   1448.7958    703.0000     51.5525
            8           7      0.5000      0.0857   1450.9559    703.0000     51.6841
            8           8      0.5000      0.1000   1452.4695    703.0000     51.7766
            8           9      0.5000      0.1143   1453.3406    703.0000     51.8300
            8          10      0.5000      0.1286   1453.5820    703.0000     51.8448
            8          11      0.5000      0.1429   1453.2153    703.0000     51.8223
            8          12      0.5000      0.1571   1452.2706    703.0000     51.7644
            8          13      0.5000      0.1714   1450.7869    703.0000     51.6738
            8          14      0.5000      0.1857   1448.8116    703.0000     51.5534
            8          15      0.5000      0.2000   1446.4007    703.0000     51.4072
            9           1      0.5714      0.0000   1428.7617    703.0000     50.3582
            9           2      0.5714      0.0143   1433.8855    703.0000     50.6591
            9           3      0.5714      0.0286   1438.4829    703.0000     50.9317
            9           4      0.5714      0.0429   1442.5109    703.0000     51.1727
            9           5      0.5714      0.0571   1445.9364    703.0000     51.3791
            9           6      0.5714      0.0714   1448.7357    703.0000     51.5488
            9           7      0.5714      0.0857   1450.8946    703.0000     51.6803
            9           8      0.5714      0.1000   1452.4081    703.0000     51.7729
            9           9      0.5714      0.1143   1453.2802    703.0000     51.8263
            9          10      0.5714      0.1286   1453.5235    703.0000     51.8412
            9          11      0.5714      0.1429   1453.1597    703.0000     51.8189
            9          12      0.5714      0.1571   1452.2189    703.0000     51.7613
            9          13      0.5714      0.1714   1450.7401    703.0000     51.6709
            9          14      0.5714      0.1857   1448.7705    703.0000     51.5509
            9          15      0.5714      0.2000   1446.3660    703.0000     51.4051
           10           1      0.6429      0.0000   1428.5816    703.0000     50.3477
           10           2      0.6429      0.0143   1433.6800    703.0000     50.6469
           10           3      0.6429      0.0286   1438.2555    703.0000     50.9182
           10           4      0.6429      0.0429   1442.2655    703.0000     51.1580
           10           5      0.6429      0.0571   1445.6770    703.0000     51.3634
           10           6      0.6429      0.0714   1448.4667    703.0000     51.5325
           10           7      0.6429      0.0857   1450.6204    703.0000     51.6636
           10           8      0.6429      0.1000   1452.1333    703.0000     51.7560
           10           9      0.6429      0.1143   1453.0094    703.0000     51.8097
           10          10      0.6429      0.1286   1453.2615    703.0000     51.8251
           10          11      0.6429      0.1429   1452.9108    703.0000     51.8037
           10          12      0.6429      0.1571   1451.9876    703.0000     51.7471
           10          13      0.6429      0.1714   1450.5304    703.0000     51.6581
           10          14      0.6429      0.1857   1448.5862    703.0000     51.5397
           10          15      0.6429      0.2000   1446.2106    703.0000     51.3957
           11           1      0.7143      0.0000   1428.0467    703.0000     50.3164
           11           2      0.7143      0.0143   1433.0695    703.0000     50.6109
           11           3      0.7143      0.0286   1437.5799    703.0000     50.8780
           11           4      0.7143      0.0429   1441.5362    703.0000     51.1142
           11           5      0.7143      0.0571   1444.9062    703.0000     51.3169
           11           6      0.7143      0.0714   1447.6671    703.0000     51.4839
           11           7      0.7143      0.0857   1449.8052    703.0000     51.6139
           11           8      0.7143      0.1000   1451.3161    703.0000     51.7061
           11           9      0.7143      0.1143   1452.2039    703.0000     51.7604
           11          10      0.7143      0.1286   1452.4812    703.0000     51.7773
           11          11      0.7143      0.1429   1452.1694    703.0000     51.7582
           11          12      0.7143      0.1571   1451.2979    703.0000     51.7050
           11          13      0.7143      0.1714   1449.9049    703.0000     51.6200
           11          14      0.7143      0.1857   1448.0364    703.0000     51.5064
           11          15      0.7143      0.2000   1445.7468    703.0000     51.3677
           12           1      0.7857      0.0000   1426.6789    703.0000     50.2368
           12           2      0.7857      0.0143   1431.5084    703.0000     50.5191
           12           3      0.7857      0.0286   1435.8520    703.0000     50.7754
           12           4      0.7857      0.0429   1439.6700    703.0000     51.0025
           12           5      0.7857      0.0571   1442.9322    703.0000     51.1980
           12           6      0.7857      0.0714   1445.6175    703.0000     51.3598
           12           7      0.7857      0.0857   1447.7134    703.0000     51.4867
           12           8      0.7857      0.1000   1449.2164    703.0000     51.5781
           12           9      0.7857      0.1143   1450.1313    703.0000     51.6338
           12          10      0.7857      0.1286   1450.4710    703.0000     51.6545
           12          11      0.7857      0.1429   1450.2564    703.0000     51.6414
           12          12      0.7857      0.1571   1449.5164    703.0000     51.5963
           12          13      0.7857      0.1714   1448.2874    703.0000     51.5216
           12          14      0.7857      0.1857   1446.6136    703.0000     51.4201
           12          15      0.7857      0.2000   1444.5463    703.0000     51.2952
           13           1      0.8571      0.0000   1423.5978    703.0000     50.0582
           13           2      0.8571      0.0143   1427.9907    703.0000     50.3132
           13           3      0.8571      0.0286   1431.9550    703.0000     50.5453
           13           4      0.8571      0.0429   1435.4558    703.0000     50.7519
           13           5      0.8571      0.0571   1438.4671    703.0000     50.9308
           13           6      0.8571      0.0714   1440.9715    703.0000     51.0804
           13           7      0.8571      0.0857   1442.9599    703.0000     51.1997
           13           8      0.8571      0.1000   1444.4318    703.0000     51.2883
           13           9      0.8571      0.1143   1445.3940    703.0000     51.3463
           13          10      0.8571      0.1286   1445.8613    703.0000     51.3746
           13          11      0.8571      0.1429   1445.8555    703.0000     51.3742
           13          12      0.8571      0.1571   1445.4052    703.0000     51.3470
           13          13      0.8571      0.1714   1444.5452    703.0000     51.2951
           13          14      0.8571      0.1857   1443.3158    703.0000     51.2211
           13          15      0.8571      0.2000   1441.7626    703.0000     51.1278
           14           1      0.9286      0.0000   1417.5311    703.0000     49.7098
           14           2      0.9286      0.0143   1421.0593    703.0000     49.9119
           14           3      0.9286      0.0286   1424.2626    703.0000     50.0966
           14           4      0.9286      0.0429   1427.1149    703.0000     50.2622
           14           5      0.9286      0.0571   1429.5983    703.0000     50.4071
           14           6      0.9286      0.0714   1431.7026    703.0000     50.5305
           14           7      0.9286      0.0857   1433.4264    703.0000     50.6320
           14           8      0.9286      0.1000   1434.7760    703.0000     50.7117
           14           9      0.9286      0.1143   1435.7661    703.0000     50.7703
           14          10      0.9286      0.1286   1436.4192    703.0000     50.8090
           14          11      0.9286      0.1429   1436.7651    703.0000     50.8296
           14          12      0.9286      0.1571   1436.8405    703.0000     50.8340
           14          13      0.9286      0.1714   1436.6872    703.0000     50.8249
           14          14      0.9286      0.1857   1436.3495    703.0000     50.8049
           14          15      0.9286      0.2000   1435.8696    703.0000     50.7764
           15           1      1.0000      0.0000   1407.4400    703.0000     49.1405
           15           2      1.0000      0.0143   1409.5150    703.0000     49.2566
           15           3      1.0000      0.0286   1411.4107    703.0000     49.3630
           15           4      1.0000      0.0429   1413.1127    703.0000     49.4590
           15           5      1.0000      0.0571   1414.6130    703.0000     49.5439
           15           6      1.0000      0.0714   1415.9104    703.0000     49.6175
           15           7      1.0000      0.0857   1417.0111    703.0000     49.6802
           15           8      1.0000      0.1000   1417.9302    703.0000     49.7326
           15           9      1.0000      0.1143   1418.6932    703.0000     49.7762
           15          10      1.0000      0.1286   1419.3383    703.0000     49.8131
           15          11      1.0000      0.1429   1419.9210    703.0000     49.8465
           15          12      1.0000      0.1571   1420.5185    703.0000     49.8808
           15          13      1.0000      0.1714   1421.2387    703.0000     49.9222
           15          14      1.0000      0.1857   1422.2316    703.0000     49.9793
           15          15      1.0000      0.2000   1423.7068    703.0000     50.0645
