 ====================================================================================
               Transient state solution for a 2D rectangular plate
                    for applications in steel reheating
                 e.g. Reheating furnaces for rolling processing
 ====================================================================================
 Author: Dickson Alves de Souza

 Based on lectures by professor Roberto Parreiras Tavares

 and book Numerical Heat Transfer and Fluid Flow
 by Suhas V. Patankar (1980)

 Federal University of Minas Gerais (UFMG)
 October 26th, 2017
 ====================================================================================
                              Input parameters:

 Lenght in X direction (meters):           1.0000
 Lenght in Y direction (meters):           0.2000
 Nodes in X direction:                         15
 Nodes in Y direction:                         15
 ====================================================================================

                       STAGE                1/  5
                       START Time:         0.0000
                       END Time:        1140.0000
                       Iterations:             1075

 ====================================================================================
 Temperature of fluid at left face (T left):             1223.1500
 Temperature of fluid at right face (T right):           1223.1500
 Temperature of fluid at bottom face (T bottom):         1223.1500
 Temperature of fluid at top face (T top):               1223.1500
 ------------------------------------------------------------------------------------
 Heat transfer coefficient at left face (H left):          50.0000
 Heat transfer coefficient at right face (H right):        50.0000
 Heat transfer coefficient at bottom face (H bottom):       8.0000
 Heat transfer coefficient at top face (H top):           150.0000
 ====================================================================================


 ====================================================================================

                       STAGE                2/  5
                       START Time:      1140.0000
                       END Time:        3060.0000
                       Iterations:             1075

 ====================================================================================
 Temperature of fluid at left face (T left):             1423.1500
 Temperature of fluid at right face (T right):           1423.1500
 Temperature of fluid at bottom face (T bottom):         1423.1500
 Temperature of fluid at top face (T top):               1423.1500
 ------------------------------------------------------------------------------------
 Heat transfer coefficient at left face (H left):          50.0000
 Heat transfer coefficient at right face (H right):        50.0000
 Heat transfer coefficient at bottom face (H bottom):       8.0000
 Heat transfer coefficient at top face (H top):           150.0000
 ====================================================================================


 ====================================================================================

                       STAGE                3/  5
                       START Time:      3060.0000
                       END Time:        4980.0000
                       Iterations:             1075

 ====================================================================================
 Temperature of fluid at left face (T left):             1513.1500
 Temperature of fluid at right face (T right):           1513.1500
 Temperature of fluid at bottom face (T bottom):         1513.1500
 Temperature of fluid at top face (T top):               1513.1500
 ------------------------------------------------------------------------------------
 Heat transfer coefficient at left face (H left):          50.0000
 Heat transfer coefficient at right face (H right):        50.0000
 Heat transfer coefficient at bottom face (H bottom):       8.0000
 Heat transfer coefficient at top face (H top):           150.0000
 ====================================================================================


 ====================================================================================

                       STAGE                4/  5
                       START Time:      4980.0000
                       END Time:        8400.0000
                       Iterations:             1075

 ====================================================================================
 Temperature of fluid at left face (T left):             1503.1500
 Temperature of fluid at right face (T right):           1503.1500
 Temperature of fluid at bottom face (T bottom):         1503.1500
 Temperature of fluid at top face (T top):               1523.1500
 ------------------------------------------------------------------------------------
 Heat transfer coefficient at left face (H left):          50.0000
 Heat transfer coefficient at right face (H right):        50.0000
 Heat transfer coefficient at bottom face (H bottom):       8.0000
 Heat transfer coefficient at top face (H top):           150.0000
 ====================================================================================


 ====================================================================================

                       STAGE                5/  5
                       START Time:      8400.0000
                       END Time:       18400.0000
                       Iterations:             1075

 ====================================================================================
 Temperature of fluid at left face (T left):             1393.1500
 Temperature of fluid at right face (T right):           1393.1500
 Temperature of fluid at bottom face (T bottom):         1393.1500
 Temperature of fluid at top face (T top):               1433.1500
 ------------------------------------------------------------------------------------
 Heat transfer coefficient at left face (H left):          50.0000
 Heat transfer coefficient at right face (H right):        50.0000
 Heat transfer coefficient at bottom face (H bottom):       8.0000
 Heat transfer coefficient at top face (H top):           150.0000
 ====================================================================================


 SOLUTION of LINEAR SYSTEM: TDMA (tri-diagonal matrix algorithm)
      ADI approach employed in solution.
 Tolerance:       0.0010

 ====================================================================================
                    Calculation Results
 Current time:    13200.000000000000       seconds
 Maximum Temperature :    1426.9904038445941
 Minimum Temperature :    1397.4990180680543
 Average(algebraic, non-weigthed) Temperature :    1413.4348592649064
 ====================================================================================
            I           J        X(m)        Y(m)        T(K)  Cp(J/kg.K) K(W/sq-m.K)
 ====================================================================================
            1           1      0.0000      0.0000   1397.4990    703.0000     48.5922
            1           2      0.0000      0.0143   1398.1648    703.0000     48.6285
            1           3      0.0000      0.0286   1398.8533    703.0000     48.6661
            1           4      0.0000      0.0429   1399.5697    703.0000     48.7054
            1           5      0.0000      0.0571   1400.3213    703.0000     48.7466
            1           6      0.0000      0.0714   1401.1182    703.0000     48.7904
            1           7      0.0000      0.0857   1401.9736    703.0000     48.8374
            1           8      0.0000      0.1000   1402.9058    703.0000     48.8889
            1           9      0.0000      0.1143   1403.9395    703.0000     48.9460
            1          10      0.0000      0.1286   1405.1082    703.0000     49.0108
            1          11      0.0000      0.1429   1406.4583    703.0000     49.0858
            1          12      0.0000      0.1571   1408.0546    703.0000     49.1748
            1          13      0.0000      0.1714   1409.9878    703.0000     49.2831
            1          14      0.0000      0.1857   1412.3868    703.0000     49.4180
            1          15      0.0000      0.2000   1415.4355    703.0000     49.5906
            2           1      0.0714      0.0000   1400.6530    703.0000     48.7648
            2           2      0.0714      0.0143   1401.7946    703.0000     48.8276
            2           3      0.0714      0.0286   1402.9590    703.0000     48.8918
            2           4      0.0714      0.0429   1404.1510    703.0000     48.9577
            2           5      0.0714      0.0571   1405.3769    703.0000     49.0257
            2           6      0.0714      0.0714   1406.6439    703.0000     49.0962
            2           7      0.0714      0.0857   1407.9614    703.0000     49.1696
            2           8      0.0714      0.1000   1409.3399    703.0000     49.2467
            2           9      0.0714      0.1143   1410.7919    703.0000     49.3282
            2          10      0.0714      0.1286   1412.3311    703.0000     49.4149
            2          11      0.0714      0.1429   1413.9726    703.0000     49.5076
            2          12      0.0714      0.1571   1415.7312    703.0000     49.6074
            2          13      0.0714      0.1714   1417.6210    703.0000     49.7150
            2          14      0.0714      0.1857   1419.6516    703.0000     49.8311
            2          15      0.0714      0.2000   1421.8249    703.0000     49.9559
            3           1      0.1429      0.0000   1402.7708    703.0000     48.8814
            3           2      0.1429      0.0143   1404.2232    703.0000     48.9617
            3           3      0.1429      0.0286   1405.6793    703.0000     49.0425
            3           4      0.1429      0.0429   1407.1404    703.0000     49.1238
            3           5      0.1429      0.0571   1408.6090    703.0000     49.2058
            3           6      0.1429      0.0714   1410.0876    703.0000     49.2887
            3           7      0.1429      0.0857   1411.5795    703.0000     49.3725
            3           8      0.1429      0.1000   1413.0885    703.0000     49.4576
            3           9      0.1429      0.1143   1414.6183    703.0000     49.5442
            3          10      0.1429      0.1286   1416.1730    703.0000     49.6325
            3          11      0.1429      0.1429   1417.7562    703.0000     49.7227
            3          12      0.1429      0.1571   1419.3709    703.0000     49.8150
            3          13      0.1429      0.1714   1421.0186    703.0000     49.9095
            3          14      0.1429      0.1857   1422.6996    703.0000     50.0063
            3          15      0.1429      0.2000   1424.4116    703.0000     50.1052
            4           1      0.2143      0.0000   1404.0752    703.0000     48.9535
            4           2      0.2143      0.0143   1405.7158    703.0000     49.0445
            4           3      0.2143      0.0286   1407.3408    703.0000     49.1350
            4           4      0.2143      0.0429   1408.9491    703.0000     49.2249
            4           5      0.2143      0.0571   1410.5405    703.0000     49.3141
            4           6      0.2143      0.0714   1412.1149    703.0000     49.4027
            4           7      0.2143      0.0857   1413.6729    703.0000     49.4907
            4           8      0.2143      0.1000   1415.2152    703.0000     49.5781
            4           9      0.2143      0.1143   1416.7432    703.0000     49.6649
            4          10      0.2143      0.1286   1418.2583    703.0000     49.7513
            4          11      0.2143      0.1429   1419.7622    703.0000     49.8374
            4          12      0.2143      0.1571   1421.2564    703.0000     49.9232
            4          13      0.2143      0.1714   1422.7425    703.0000     50.0088
            4          14      0.2143      0.1857   1424.2219    703.0000     50.0942
            4          15      0.2143      0.2000   1425.6955    703.0000     50.1796
            5           1      0.2857      0.0000   1404.8422    703.0000     48.9960
            5           2      0.2857      0.0143   1406.5924    703.0000     49.0933
            5           3      0.2857      0.0286   1408.3134    703.0000     49.1893
            5           4      0.2857      0.0429   1410.0027    703.0000     49.2839
            5           5      0.2857      0.0571   1411.6585    703.0000     49.3770
            5           6      0.2857      0.0714   1413.2796    703.0000     49.4684
            5           7      0.2857      0.0857   1414.8652    703.0000     49.5582
            5           8      0.2857      0.1000   1416.4153    703.0000     49.6463
            5           9      0.2857      0.1143   1417.9305    703.0000     49.7326
            5          10      0.2857      0.1286   1419.4119    703.0000     49.8173
            5          11      0.2857      0.1429   1420.8611    703.0000     49.9005
            5          12      0.2857      0.1571   1422.2802    703.0000     49.9821
            5          13      0.2857      0.1714   1423.6715    703.0000     50.0624
            5          14      0.2857      0.1857   1425.0379    703.0000     50.1415
            5          15      0.2857      0.2000   1426.3824    703.0000     50.2195
            6           1      0.3571      0.0000   1405.2726    703.0000     49.0199
            6           2      0.3571      0.0143   1407.0841    703.0000     49.1207
            6           3      0.3571      0.0286   1408.8581    703.0000     49.2198
            6           4      0.3571      0.0429   1410.5914    703.0000     49.3170
            6           5      0.3571      0.0571   1412.2813    703.0000     49.4121
            6           6      0.3571      0.0714   1413.9260    703.0000     49.5050
            6           7      0.3571      0.0857   1415.5244    703.0000     49.5956
            6           8      0.3571      0.1000   1417.0761    703.0000     49.6839
            6           9      0.3571      0.1143   1418.5815    703.0000     49.7698
            6          10      0.3571      0.1286   1420.0418    703.0000     49.8534
            6          11      0.3571      0.1429   1421.4587    703.0000     49.9348
            6          12      0.3571      0.1571   1422.8349    703.0000     50.0141
            6          13      0.3571      0.1714   1424.1734    703.0000     50.0914
            6          14      0.3571      0.1857   1425.4779    703.0000     50.1670
            6          15      0.3571      0.2000   1426.7526    703.0000     50.2411
            7           1      0.4286      0.0000   1405.4888    703.0000     49.0319
            7           2      0.4286      0.0143   1407.3310    703.0000     49.1344
            7           3      0.4286      0.0286   1409.1314    703.0000     49.2351
            7           4      0.4286      0.0429   1410.8864    703.0000     49.3335
            7           5      0.4286      0.0571   1412.5931    703.0000     49.4297
            7           6      0.4286      0.0714   1414.2492    703.0000     49.5233
            7           7      0.4286      0.0857   1415.8534    703.0000     49.6143
            7           8      0.4286      0.1000   1417.4053    703.0000     49.7027
            7           9      0.4286      0.1143   1418.9052    703.0000     49.7883
            7          10      0.4286      0.1286   1420.3544    703.0000     49.8714
            7          11      0.4286      0.1429   1421.7549    703.0000     49.9519
            7          12      0.4286      0.1571   1423.1094    703.0000     50.0299
            7          13      0.4286      0.1714   1424.4215    703.0000     50.1058
            7          14      0.4286      0.1857   1425.6952    703.0000     50.1796
            7          15      0.4286      0.2000   1426.9353    703.0000     50.2517
            8           1      0.5000      0.0000   1405.5544    703.0000     49.0355
            8           2      0.5000      0.0143   1407.4058    703.0000     49.1386
            8           3      0.5000      0.0286   1409.2142    703.0000     49.2397
            8           4      0.5000      0.0429   1410.9758    703.0000     49.3386
            8           5      0.5000      0.0571   1412.6875    703.0000     49.4350
            8           6      0.5000      0.0714   1414.3470    703.0000     49.5288
            8           7      0.5000      0.0857   1415.9529    703.0000     49.6200
            8           8      0.5000      0.1000   1417.5048    703.0000     49.7083
            8           9      0.5000      0.1143   1419.0030    703.0000     49.7939
            8          10      0.5000      0.1286   1420.4488    703.0000     49.8768
            8          11      0.5000      0.1429   1421.8442    703.0000     49.9570
            8          12      0.5000      0.1571   1423.1922    703.0000     50.0347
            8          13      0.5000      0.1714   1424.4962    703.0000     50.1101
            8          14      0.5000      0.1857   1425.7607    703.0000     50.1834
            8          15      0.5000      0.2000   1426.9904    703.0000     50.2549
            9           1      0.5714      0.0000   1405.4889    703.0000     49.0319
            9           2      0.5714      0.0143   1407.3310    703.0000     49.1344
            9           3      0.5714      0.0286   1409.1315    703.0000     49.2351
            9           4      0.5714      0.0429   1410.8865    703.0000     49.3335
            9           5      0.5714      0.0571   1412.5932    703.0000     49.4297
            9           6      0.5714      0.0714   1414.2493    703.0000     49.5233
            9           7      0.5714      0.0857   1415.8535    703.0000     49.6143
            9           8      0.5714      0.1000   1417.4054    703.0000     49.7027
            9           9      0.5714      0.1143   1418.9053    703.0000     49.7883
            9          10      0.5714      0.1286   1420.3545    703.0000     49.8714
            9          11      0.5714      0.1429   1421.7549    703.0000     49.9519
            9          12      0.5714      0.1571   1423.1095    703.0000     50.0299
            9          13      0.5714      0.1714   1424.4215    703.0000     50.1058
            9          14      0.5714      0.1857   1425.6953    703.0000     50.1796
            9          15      0.5714      0.2000   1426.9354    703.0000     50.2517
           10           1      0.6429      0.0000   1405.2728    703.0000     49.0199
           10           2      0.6429      0.0143   1407.0842    703.0000     49.1207
           10           3      0.6429      0.0286   1408.8583    703.0000     49.2198
           10           4      0.6429      0.0429   1410.5916    703.0000     49.3170
           10           5      0.6429      0.0571   1412.2815    703.0000     49.4121
           10           6      0.6429      0.0714   1413.9263    703.0000     49.5050
           10           7      0.6429      0.0857   1415.5246    703.0000     49.5956
           10           8      0.6429      0.1000   1417.0763    703.0000     49.6839
           10           9      0.6429      0.1143   1418.5817    703.0000     49.7698
           10          10      0.6429      0.1286   1420.0420    703.0000     49.8534
           10          11      0.6429      0.1429   1421.4589    703.0000     49.9348
           10          12      0.6429      0.1571   1422.8351    703.0000     50.0141
           10          13      0.6429      0.1714   1424.1736    703.0000     50.0914
           10          14      0.6429      0.1857   1425.4780    703.0000     50.1670
           10          15      0.6429      0.2000   1426.7527    703.0000     50.2411
           11           1      0.7143      0.0000   1404.8425    703.0000     48.9960
           11           2      0.7143      0.0143   1406.5927    703.0000     49.0933
           11           3      0.7143      0.0286   1408.3138    703.0000     49.1893
           11           4      0.7143      0.0429   1410.0031    703.0000     49.2839
           11           5      0.7143      0.0571   1411.6590    703.0000     49.3770
           11           6      0.7143      0.0714   1413.2800    703.0000     49.4685
           11           7      0.7143      0.0857   1414.8656    703.0000     49.5582
           11           8      0.7143      0.1000   1416.4158    703.0000     49.6463
           11           9      0.7143      0.1143   1417.9310    703.0000     49.7326
           11          10      0.7143      0.1286   1419.4124    703.0000     49.8174
           11          11      0.7143      0.1429   1420.8616    703.0000     49.9005
           11          12      0.7143      0.1571   1422.2806    703.0000     49.9821
           11          13      0.7143      0.1714   1423.6719    703.0000     50.0624
           11          14      0.7143      0.1857   1425.0382    703.0000     50.1415
           11          15      0.7143      0.2000   1426.3827    703.0000     50.2196
           12           1      0.7857      0.0000   1404.0758    703.0000     48.9536
           12           2      0.7857      0.0143   1405.7165    703.0000     49.0446
           12           3      0.7857      0.0286   1407.3415    703.0000     49.1350
           12           4      0.7857      0.0429   1408.9499    703.0000     49.2249
           12           5      0.7857      0.0571   1410.5414    703.0000     49.3141
           12           6      0.7857      0.0714   1412.1158    703.0000     49.4027
           12           7      0.7857      0.0857   1413.6738    703.0000     49.4907
           12           8      0.7857      0.1000   1415.2161    703.0000     49.5781
           12           9      0.7857      0.1143   1416.7441    703.0000     49.6650
           12          10      0.7857      0.1286   1418.2592    703.0000     49.7514
           12          11      0.7857      0.1429   1419.7630    703.0000     49.8374
           12          12      0.7857      0.1571   1421.2571    703.0000     49.9232
           12          13      0.7857      0.1714   1422.7432    703.0000     50.0088
           12          14      0.7857      0.1857   1424.2225    703.0000     50.0943
           12          15      0.7857      0.2000   1425.6960    703.0000     50.1797
           13           1      0.8571      0.0000   1402.7718    703.0000     48.8815
           13           2      0.8571      0.0143   1404.2243    703.0000     48.9618
           13           3      0.8571      0.0286   1405.6805    703.0000     49.0426
           13           4      0.8571      0.0429   1407.1417    703.0000     49.1239
           13           5      0.8571      0.0571   1408.6103    703.0000     49.2059
           13           6      0.8571      0.0714   1410.0890    703.0000     49.2887
           13           7      0.8571      0.0857   1411.5809    703.0000     49.3726
           13           8      0.8571      0.1000   1413.0899    703.0000     49.4577
           13           9      0.8571      0.1143   1414.6197    703.0000     49.5443
           13          10      0.8571      0.1286   1416.1744    703.0000     49.6326
           13          11      0.8571      0.1429   1417.7575    703.0000     49.7227
           13          12      0.8571      0.1571   1419.3720    703.0000     49.8151
           13          13      0.8571      0.1714   1421.0197    703.0000     49.9096
           13          14      0.8571      0.1857   1422.7005    703.0000     50.0063
           13          15      0.8571      0.2000   1424.4124    703.0000     50.1053
           14           1      0.9286      0.0000   1400.6537    703.0000     48.7648
           14           2      0.9286      0.0143   1401.7952    703.0000     48.8276
           14           3      0.9286      0.0286   1402.9597    703.0000     48.8918
           14           4      0.9286      0.0429   1404.1519    703.0000     48.9578
           14           5      0.9286      0.0571   1405.3777    703.0000     49.0257
           14           6      0.9286      0.0714   1406.6448    703.0000     49.0962
           14           7      0.9286      0.0857   1407.9623    703.0000     49.1697
           14           8      0.9286      0.1000   1409.3408    703.0000     49.2468
           14           9      0.9286      0.1143   1410.7928    703.0000     49.3283
           14          10      0.9286      0.1286   1412.3320    703.0000     49.4149
           14          11      0.9286      0.1429   1413.9734    703.0000     49.5077
           14          12      0.9286      0.1571   1415.7320    703.0000     49.6074
           14          13      0.9286      0.1714   1417.6217    703.0000     49.7150
           14          14      0.9286      0.1857   1419.6522    703.0000     49.8311
           14          15      0.9286      0.2000   1421.8254    703.0000     49.9559
           15           1      1.0000      0.0000   1397.4992    703.0000     48.5922
           15           2      1.0000      0.0143   1398.1650    703.0000     48.6285
           15           3      1.0000      0.0286   1398.8535    703.0000     48.6661
           15           4      1.0000      0.0429   1399.5699    703.0000     48.7054
           15           5      1.0000      0.0571   1400.3216    703.0000     48.7466
           15           6      1.0000      0.0714   1401.1184    703.0000     48.7904
           15           7      1.0000      0.0857   1401.9739    703.0000     48.8375
           15           8      1.0000      0.1000   1402.9061    703.0000     48.8889
           15           9      1.0000      0.1143   1403.9397    703.0000     48.9460
           15          10      1.0000      0.1286   1405.1084    703.0000     49.0108
           15          11      1.0000      0.1429   1406.4586    703.0000     49.0858
           15          12      1.0000      0.1571   1408.0548    703.0000     49.1748
           15          13      1.0000      0.1714   1409.9880    703.0000     49.2831
           15          14      1.0000      0.1857   1412.3870    703.0000     49.4180
           15          15      1.0000      0.2000   1415.4356    703.0000     49.5906
