 ====================================================================================
               Transient state solution for a 2D rectangular plate
                    for applications in steel reheating
                 e.g. Reheating furnaces for rolling processing
 ====================================================================================
 Author: Dickson Alves de Souza

 Based on lectures by professor Roberto Parreiras Tavares

 and book Numerical Heat Transfer and Fluid Flow
 by Suhas V. Patankar (1980)

 Federal University of Minas Gerais (UFMG)
 October 26th, 2017
 ====================================================================================
                              Input parameters:

 Lenght in X direction (meters):           1.0000
 Lenght in Y direction (meters):           0.2000
 Nodes in X direction:                         15
 Nodes in Y direction:                         15
 ====================================================================================

                       STAGE                1/  5
                       START Time:         0.0000
                       END Time:        1140.0000
                       Iterations:              538

 ====================================================================================
 Temperature of fluid at left face (T left):             1223.1500
 Temperature of fluid at right face (T right):           1223.1500
 Temperature of fluid at bottom face (T bottom):         1223.1500
 Temperature of fluid at top face (T top):               1223.1500
 ------------------------------------------------------------------------------------
 Heat transfer coefficient at left face (H left):          50.0000
 Heat transfer coefficient at right face (H right):        50.0000
 Heat transfer coefficient at bottom face (H bottom):       8.0000
 Heat transfer coefficient at top face (H top):           150.0000
 ====================================================================================


 ====================================================================================

                       STAGE                2/  5
                       START Time:      1140.0000
                       END Time:        3060.0000
                       Iterations:              538

 ====================================================================================
 Temperature of fluid at left face (T left):             1423.1500
 Temperature of fluid at right face (T right):           1423.1500
 Temperature of fluid at bottom face (T bottom):         1423.1500
 Temperature of fluid at top face (T top):               1423.1500
 ------------------------------------------------------------------------------------
 Heat transfer coefficient at left face (H left):          50.0000
 Heat transfer coefficient at right face (H right):        50.0000
 Heat transfer coefficient at bottom face (H bottom):       8.0000
 Heat transfer coefficient at top face (H top):           150.0000
 ====================================================================================


 ====================================================================================

                       STAGE                3/  5
                       START Time:      3060.0000
                       END Time:        4980.0000
                       Iterations:              538

 ====================================================================================
 Temperature of fluid at left face (T left):             1513.1500
 Temperature of fluid at right face (T right):           1513.1500
 Temperature of fluid at bottom face (T bottom):         1513.1500
 Temperature of fluid at top face (T top):               1513.1500
 ------------------------------------------------------------------------------------
 Heat transfer coefficient at left face (H left):          50.0000
 Heat transfer coefficient at right face (H right):        50.0000
 Heat transfer coefficient at bottom face (H bottom):       8.0000
 Heat transfer coefficient at top face (H top):           150.0000
 ====================================================================================


 ====================================================================================

                       STAGE                4/  5
                       START Time:      4980.0000
                       END Time:        8400.0000
                       Iterations:              538

 ====================================================================================
 Temperature of fluid at left face (T left):             1503.1500
 Temperature of fluid at right face (T right):           1503.1500
 Temperature of fluid at bottom face (T bottom):         1503.1500
 Temperature of fluid at top face (T top):               1523.1500
 ------------------------------------------------------------------------------------
 Heat transfer coefficient at left face (H left):          50.0000
 Heat transfer coefficient at right face (H right):        50.0000
 Heat transfer coefficient at bottom face (H bottom):       8.0000
 Heat transfer coefficient at top face (H top):           150.0000
 ====================================================================================


 SOLUTION of LINEAR SYSTEM: TDMA (tri-diagonal matrix algorithm)
      ADI approach employed in solution.
 Tolerance:       0.0010

 ====================================================================================
                    Calculation Results
 Current time:    5380.0000000000000       seconds
 Maximum Temperature :    1502.6887729649345
 Minimum Temperature :    1419.2728448407090
 Average(algebraic, non-weigthed) Temperature :    1457.0340780622137
 ====================================================================================
            I           J        X(m)        Y(m)        T(K)  Cp(J/kg.K) K(W/sq-m.K)
 ====================================================================================
            1           1      0.0000      0.0000   1492.9435    703.0000     54.3470
            1           2      0.0000      0.0143   1491.3294    703.0000     54.2410
            1           3      0.0000      0.0286   1489.9225    703.0000     54.1489
            1           4      0.0000      0.0429   1488.7675    703.0000     54.0734
            1           5      0.0000      0.0571   1487.9087    703.0000     54.0174
            1           6      0.0000      0.0714   1487.3872    703.0000     53.9834
            1           7      0.0000      0.0857   1487.2385    703.0000     53.9738
            1           8      0.0000      0.1000   1487.4930    703.0000     53.9903
            1           9      0.0000      0.1143   1488.1757    703.0000     54.0348
            1          10      0.0000      0.1286   1489.3085    703.0000     54.1088
            1          11      0.0000      0.1429   1490.9128    703.0000     54.2137
            1          12      0.0000      0.1571   1493.0127    703.0000     54.3515
            1          13      0.0000      0.1714   1495.6405    703.0000     54.5246
            1          14      0.0000      0.1857   1498.8428    703.0000     54.7365
            1          15      0.0000      0.2000   1502.6888    703.0000     54.9925
            2           1      0.0714      0.0000   1482.8722    703.0000     53.6905
            2           2      0.0714      0.0143   1479.6617    703.0000     53.4835
            2           3      0.0714      0.0286   1476.8675    703.0000     53.3043
            2           4      0.0714      0.0429   1474.5693    703.0000     53.1576
            2           5      0.0714      0.0571   1472.8444    703.0000     53.0478
            2           6      0.0714      0.0714   1471.7619    703.0000     52.9791
            2           7      0.0714      0.0857   1471.3789    703.0000     52.9548
            2           8      0.0714      0.1000   1471.7383    703.0000     52.9776
            2           9      0.0714      0.1143   1472.8679    703.0000     53.0493
            2          10      0.0714      0.1286   1474.7801    703.0000     53.1710
            2          11      0.0714      0.1429   1477.4723    703.0000     53.3430
            2          12      0.0714      0.1571   1480.9271    703.0000     53.5650
            2          13      0.0714      0.1714   1485.1119    703.0000     53.8355
            2          14      0.0714      0.1857   1489.9771    703.0000     54.1525
            2          15      0.0714      0.2000   1495.4519    703.0000     54.5122
            3           1      0.1429      0.0000   1472.8519    703.0000     53.0483
            3           2      0.1429      0.0143   1468.0415    703.0000     52.7439
            3           3      0.1429      0.0286   1463.8468    703.0000     52.4806
            3           4      0.1429      0.0429   1460.3816    703.0000     52.2646
            3           5      0.1429      0.0571   1457.7534    703.0000     52.1017
            3           6      0.1429      0.0714   1456.0558    703.0000     51.9969
            3           7      0.1429      0.0857   1455.3636    703.0000     51.9543
            3           8      0.1429      0.1000   1455.7285    703.0000     51.9768
            3           9      0.1429      0.1143   1457.1780    703.0000     52.0662
            3          10      0.1429      0.1286   1459.7144    703.0000     52.2232
            3          11      0.1429      0.1429   1463.3157    703.0000     52.4474
            3          12      0.1429      0.1571   1467.9358    703.0000     52.7373
            3          13      0.1429      0.1714   1473.5063    703.0000     53.0899
            3          14      0.1429      0.1857   1479.9367    703.0000     53.5012
            3          15      0.1429      0.2000   1487.1129    703.0000     53.9656
            4           1      0.2143      0.0000   1464.3386    703.0000     52.5114
            4           2      0.2143      0.0143   1458.1606    703.0000     52.1269
            4           3      0.2143      0.0286   1452.7626    703.0000     51.7946
            4           4      0.2143      0.0429   1448.2889    703.0000     51.5217
            4           5      0.2143      0.0571   1444.8742    703.0000     51.3150
            4           6      0.2143      0.0714   1442.6346    703.0000     51.1801
            4           7      0.2143      0.0857   1441.6605    703.0000     51.1217
            4           8      0.2143      0.1000   1442.0121    703.0000     51.1428
            4           9      0.2143      0.1143   1443.7173    703.0000     51.2452
            4          10      0.2143      0.1286   1446.7706    703.0000     51.4296
            4          11      0.2143      0.1429   1451.1342    703.0000     51.6950
            4          12      0.2143      0.1571   1456.7398    703.0000     52.0391
            4          13      0.2143      0.1714   1463.4909    703.0000     52.4584
            4          14      0.2143      0.1857   1471.2650    703.0000     52.9476
            4          15      0.2143      0.2000   1479.9138    703.0000     53.4997
            5           1      0.2857      0.0000   1457.9280    703.0000     52.1125
            5           2      0.2857      0.0143   1450.7157    703.0000     51.6694
            5           3      0.2857      0.0286   1444.4051    703.0000     51.2867
            5           4      0.2857      0.0429   1439.1645    703.0000     50.9724
            5           5      0.2857      0.0571   1435.1503    703.0000     50.7338
            5           6      0.2857      0.0714   1432.4963    703.0000     50.5772
            5           7      0.2857      0.0857   1431.3057    703.0000     50.5072
            5           8      0.2857      0.1000   1431.6456    703.0000     50.5272
            5           9      0.2857      0.1143   1433.5443    703.0000     50.6389
            5          10      0.2857      0.1286   1436.9902    703.0000     50.8429
            5          11      0.2857      0.1429   1441.9334    703.0000     51.1380
            5          12      0.2857      0.1571   1448.2880    703.0000     51.5216
            5          13      0.2857      0.1714   1455.9358    703.0000     51.9895
            5          14      0.2857      0.1857   1464.7292    703.0000     52.5359
            5          15      0.2857      0.2000   1474.4933    703.0000     53.1527
            6           1      0.3571      0.0000   1453.6484    703.0000     51.8489
            6           2      0.3571      0.0143   1445.7438    703.0000     51.3675
            6           3      0.3571      0.0286   1438.8213    703.0000     50.9519
            6           4      0.3571      0.0429   1433.0659    703.0000     50.6107
            6           5      0.3571      0.0571   1428.6490    703.0000     50.3516
            6           6      0.3571      0.0714   1425.7165    703.0000     50.1809
            6           7      0.3571      0.0857   1424.3806    703.0000     50.1034
            6           8      0.3571      0.1000   1424.7131    703.0000     50.1227
            6           9      0.3571      0.1143   1426.7424    703.0000     50.2405
            6          10      0.3571      0.1286   1430.4530    703.0000     50.4572
            6          11      0.3571      0.1429   1435.7864    703.0000     50.7715
            6          12      0.3571      0.1571   1442.6447    703.0000     51.1807
            6          13      0.3571      0.1714   1450.8947    703.0000     51.6803
            6          14      0.3571      0.1857   1460.3716    703.0000     52.2640
            6          15      0.3571      0.2000   1470.8821    703.0000     52.9233
            7           1      0.4286      0.0000   1451.2569    703.0000     51.7025
            7           2      0.4286      0.0143   1442.9648    703.0000     51.2000
            7           3      0.4286      0.0286   1435.6996    703.0000     50.7664
            7           4      0.4286      0.0429   1429.6558    703.0000     50.4105
            7           5      0.4286      0.0571   1425.0131    703.0000     50.1401
            7           6      0.4286      0.0714   1421.9247    703.0000     49.9616
            7           7      0.4286      0.0857   1420.5074    703.0000     49.8802
            7           8      0.4286      0.1000   1420.8360    703.0000     49.8990
            7           9      0.4286      0.1143   1422.9390    703.0000     50.0201
            7          10      0.4286      0.1286   1426.7984    703.0000     50.2437
            7          11      0.4286      0.1429   1432.3509    703.0000     50.5686
            7          12      0.4286      0.1571   1439.4919    703.0000     50.9919
            7          13      0.4286      0.1714   1448.0794    703.0000     51.5090
            7          14      0.4286      0.1857   1457.9391    703.0000     52.1132
            7          15      0.4286      0.2000   1468.8672    703.0000     52.7960
            8           1      0.5000      0.0000   1450.4949    703.0000     51.6560
            8           2      0.5000      0.0143   1442.0792    703.0000     51.1468
            8           3      0.5000      0.0286   1434.7047    703.0000     50.7075
            8           4      0.5000      0.0429   1428.5689    703.0000     50.3469
            8           5      0.5000      0.0571   1423.8542    703.0000     50.0730
            8           6      0.5000      0.0714   1420.7160    703.0000     49.8921
            8           7      0.5000      0.0857   1419.2728    703.0000     49.8094
            8           8      0.5000      0.1000   1419.6002    703.0000     49.8281
            8           9      0.5000      0.1143   1421.7268    703.0000     49.9502
            8          10      0.5000      0.1286   1425.6337    703.0000     50.1761
            8          11      0.5000      0.1429   1431.2562    703.0000     50.5043
            8          12      0.5000      0.1571   1438.4874    703.0000     50.9320
            8          13      0.5000      0.1714   1447.1827    703.0000     51.4546
            8          14      0.5000      0.1857   1457.1644    703.0000     52.0653
            8          15      0.5000      0.2000   1468.2256    703.0000     52.7555
            9           1      0.5714      0.0000   1451.2568    703.0000     51.7025
            9           2      0.5714      0.0143   1442.9647    703.0000     51.2000
            9           3      0.5714      0.0286   1435.6995    703.0000     50.7664
            9           4      0.5714      0.0429   1429.6556    703.0000     50.4104
            9           5      0.5714      0.0571   1425.0129    703.0000     50.1400
            9           6      0.5714      0.0714   1421.9245    703.0000     49.9616
            9           7      0.5714      0.0857   1420.5072    703.0000     49.8801
            9           8      0.5714      0.1000   1420.8358    703.0000     49.8990
            9           9      0.5714      0.1143   1422.9388    703.0000     50.0201
            9          10      0.5714      0.1286   1426.7982    703.0000     50.2437
            9          11      0.5714      0.1429   1432.3508    703.0000     50.5686
            9          12      0.5714      0.1571   1439.4917    703.0000     50.9919
            9          13      0.5714      0.1714   1448.0793    703.0000     51.5090
            9          14      0.5714      0.1857   1457.9389    703.0000     52.1132
            9          15      0.5714      0.2000   1468.8671    703.0000     52.7960
           10           1      0.6429      0.0000   1453.6481    703.0000     51.8489
           10           2      0.6429      0.0143   1445.7435    703.0000     51.3675
           10           3      0.6429      0.0286   1438.8209    703.0000     50.9519
           10           4      0.6429      0.0429   1433.0655    703.0000     50.6107
           10           5      0.6429      0.0571   1428.6485    703.0000     50.3516
           10           6      0.6429      0.0714   1425.7161    703.0000     50.1808
           10           7      0.6429      0.0857   1424.3801    703.0000     50.1034
           10           8      0.6429      0.1000   1424.7126    703.0000     50.1226
           10           9      0.6429      0.1143   1426.7420    703.0000     50.2404
           10          10      0.6429      0.1286   1430.4526    703.0000     50.4571
           10          11      0.6429      0.1429   1435.7860    703.0000     50.7715
           10          12      0.6429      0.1571   1442.6444    703.0000     51.1807
           10          13      0.6429      0.1714   1450.8943    703.0000     51.6803
           10          14      0.6429      0.1857   1460.3713    703.0000     52.2640
           10          15      0.6429      0.2000   1470.8818    703.0000     52.9233
           11           1      0.7143      0.0000   1457.9275    703.0000     52.1125
           11           2      0.7143      0.0143   1450.7151    703.0000     51.6694
           11           3      0.7143      0.0286   1444.4044    703.0000     51.2866
           11           4      0.7143      0.0429   1439.1637    703.0000     50.9723
           11           5      0.7143      0.0571   1435.1495    703.0000     50.7338
           11           6      0.7143      0.0714   1432.4955    703.0000     50.5771
           11           7      0.7143      0.0857   1431.3049    703.0000     50.5071
           11           8      0.7143      0.1000   1431.6448    703.0000     50.5271
           11           9      0.7143      0.1143   1433.5435    703.0000     50.6389
           11          10      0.7143      0.1286   1436.9894    703.0000     50.8429
           11          11      0.7143      0.1429   1441.9326    703.0000     51.1380
           11          12      0.7143      0.1571   1448.2873    703.0000     51.5216
           11          13      0.7143      0.1714   1455.9351    703.0000     51.9895
           11          14      0.7143      0.1857   1464.7287    703.0000     52.5358
           11          15      0.7143      0.2000   1474.4929    703.0000     53.1527
           12           1      0.7857      0.0000   1464.3376    703.0000     52.5113
           12           2      0.7857      0.0143   1458.1595    703.0000     52.1269
           12           3      0.7857      0.0286   1452.7613    703.0000     51.7945
           12           4      0.7857      0.0429   1448.2875    703.0000     51.5216
           12           5      0.7857      0.0571   1444.8728    703.0000     51.3149
           12           6      0.7857      0.0714   1442.6331    703.0000     51.1800
           12           7      0.7857      0.0857   1441.6589    703.0000     51.1216
           12           8      0.7857      0.1000   1442.0105    703.0000     51.1427
           12           9      0.7857      0.1143   1443.7158    703.0000     51.2451
           12          10      0.7857      0.1286   1446.7692    703.0000     51.4295
           12          11      0.7857      0.1429   1451.1328    703.0000     51.6949
           12          12      0.7857      0.1571   1456.7385    703.0000     52.0390
           12          13      0.7857      0.1714   1463.4898    703.0000     52.4583
           12          14      0.7857      0.1857   1471.2640    703.0000     52.9475
           12          15      0.7857      0.2000   1479.9129    703.0000     53.4997
           13           1      0.8571      0.0000   1472.8503    703.0000     53.0482
           13           2      0.8571      0.0143   1468.0397    703.0000     52.7438
           13           3      0.8571      0.0286   1463.8447    703.0000     52.4805
           13           4      0.8571      0.0429   1460.3793    703.0000     52.2645
           13           5      0.8571      0.0571   1457.7509    703.0000     52.1016
           13           6      0.8571      0.0714   1456.0533    703.0000     51.9968
           13           7      0.8571      0.0857   1455.3609    703.0000     51.9541
           13           8      0.8571      0.1000   1455.7258    703.0000     51.9766
           13           9      0.8571      0.1143   1457.1753    703.0000     52.0660
           13          10      0.8571      0.1286   1459.7119    703.0000     52.2231
           13          11      0.8571      0.1429   1463.3133    703.0000     52.4473
           13          12      0.8571      0.1571   1467.9335    703.0000     52.7371
           13          13      0.8571      0.1714   1473.5043    703.0000     53.0898
           13          14      0.8571      0.1857   1479.9350    703.0000     53.5011
           13          15      0.8571      0.2000   1487.1114    703.0000     53.9655
           14           1      0.9286      0.0000   1482.8709    703.0000     53.6904
           14           2      0.9286      0.0143   1479.6602    703.0000     53.4834
           14           3      0.9286      0.0286   1476.8657    703.0000     53.3042
           14           4      0.9286      0.0429   1474.5674    703.0000     53.1574
           14           5      0.9286      0.0571   1472.8424    703.0000     53.0477
           14           6      0.9286      0.0714   1471.7598    703.0000     52.9790
           14           7      0.9286      0.0857   1471.3768    703.0000     52.9547
           14           8      0.9286      0.1000   1471.7362    703.0000     52.9775
           14           9      0.9286      0.1143   1472.8658    703.0000     53.0492
           14          10      0.9286      0.1286   1474.7781    703.0000     53.1709
           14          11      0.9286      0.1429   1477.4704    703.0000     53.3429
           14          12      0.9286      0.1571   1480.9253    703.0000     53.5649
           14          13      0.9286      0.1714   1485.1103    703.0000     53.8354
           14          14      0.9286      0.1857   1489.9758    703.0000     54.1524
           14          15      0.9286      0.2000   1495.4507    703.0000     54.5121
           15           1      1.0000      0.0000   1492.9430    703.0000     54.3469
           15           2      1.0000      0.0143   1491.3288    703.0000     54.2410
           15           3      1.0000      0.0286   1489.9219    703.0000     54.1489
           15           4      1.0000      0.0429   1488.7668    703.0000     54.0734
           15           5      1.0000      0.0571   1487.9079    703.0000     54.0174
           15           6      1.0000      0.0714   1487.3864    703.0000     53.9834
           15           7      1.0000      0.0857   1487.2377    703.0000     53.9737
           15           8      1.0000      0.1000   1487.4921    703.0000     53.9903
           15           9      1.0000      0.1143   1488.1749    703.0000     54.0348
           15          10      1.0000      0.1286   1489.3078    703.0000     54.1087
           15          11      1.0000      0.1429   1490.9121    703.0000     54.2137
           15          12      1.0000      0.1571   1493.0121    703.0000     54.3515
           15          13      1.0000      0.1714   1495.6399    703.0000     54.5246
           15          14      1.0000      0.1857   1498.8422    703.0000     54.7365
           15          15      1.0000      0.2000   1502.6883    703.0000     54.9924
