 ====================================================================================
               Transient state solution for a 2D rectangular plate
                    for applications in steel reheating
                 e.g. Reheating furnaces for rolling processing
 ====================================================================================
 Author: Dickson Alves de Souza

 Based on lectures by professor Roberto Parreiras Tavares

 and book Numerical Heat Transfer and Fluid Flow
 by Suhas V. Patankar (1980)

 Federal University of Minas Gerais (UFMG)
 October 26th, 2017
 ====================================================================================
                              Input parameters:

 Lenght in X direction (meters):           1.0000
 Lenght in Y direction (meters):           0.2000
 Nodes in X direction:                         15
 Nodes in Y direction:                         15
 ====================================================================================

                       STAGE                1/  5
                       START Time:         0.0000
                       END Time:        1140.0000
                       Iterations:              643

 ====================================================================================
 Temperature of fluid at left face (T left):             1223.1500
 Temperature of fluid at right face (T right):           1223.1500
 Temperature of fluid at bottom face (T bottom):         1223.1500
 Temperature of fluid at top face (T top):               1223.1500
 ------------------------------------------------------------------------------------
 Heat transfer coefficient at left face (H left):          50.0000
 Heat transfer coefficient at right face (H right):        50.0000
 Heat transfer coefficient at bottom face (H bottom):       8.0000
 Heat transfer coefficient at top face (H top):           150.0000
 ====================================================================================


 ====================================================================================

                       STAGE                2/  5
                       START Time:      1140.0000
                       END Time:        3060.0000
                       Iterations:              643

 ====================================================================================
 Temperature of fluid at left face (T left):             1423.1500
 Temperature of fluid at right face (T right):           1423.1500
 Temperature of fluid at bottom face (T bottom):         1423.1500
 Temperature of fluid at top face (T top):               1423.1500
 ------------------------------------------------------------------------------------
 Heat transfer coefficient at left face (H left):          50.0000
 Heat transfer coefficient at right face (H right):        50.0000
 Heat transfer coefficient at bottom face (H bottom):       8.0000
 Heat transfer coefficient at top face (H top):           150.0000
 ====================================================================================


 ====================================================================================

                       STAGE                3/  5
                       START Time:      3060.0000
                       END Time:        4980.0000
                       Iterations:              643

 ====================================================================================
 Temperature of fluid at left face (T left):             1513.1500
 Temperature of fluid at right face (T right):           1513.1500
 Temperature of fluid at bottom face (T bottom):         1513.1500
 Temperature of fluid at top face (T top):               1513.1500
 ------------------------------------------------------------------------------------
 Heat transfer coefficient at left face (H left):          50.0000
 Heat transfer coefficient at right face (H right):        50.0000
 Heat transfer coefficient at bottom face (H bottom):       8.0000
 Heat transfer coefficient at top face (H top):           150.0000
 ====================================================================================


 ====================================================================================

                       STAGE                4/  5
                       START Time:      4980.0000
                       END Time:        8400.0000
                       Iterations:              643

 ====================================================================================
 Temperature of fluid at left face (T left):             1503.1500
 Temperature of fluid at right face (T right):           1503.1500
 Temperature of fluid at bottom face (T bottom):         1503.1500
 Temperature of fluid at top face (T top):               1523.1500
 ------------------------------------------------------------------------------------
 Heat transfer coefficient at left face (H left):          50.0000
 Heat transfer coefficient at right face (H right):        50.0000
 Heat transfer coefficient at bottom face (H bottom):       8.0000
 Heat transfer coefficient at top face (H top):           150.0000
 ====================================================================================


 SOLUTION of LINEAR SYSTEM: TDMA (tri-diagonal matrix algorithm)
      ADI approach employed in solution.
 Tolerance:       0.0010

 ====================================================================================
                    Calculation Results
 Current time:    6780.0000000000000       seconds
 Maximum Temperature :    1510.7816778574725
 Minimum Temperature :    1483.6674834623918
 Average(algebraic, non-weigthed) Temperature :    1495.4443132883407
 ====================================================================================
            I           J        X(m)        Y(m)        T(K)  Cp(J/kg.K) K(W/sq-m.K)
 ====================================================================================
            1           1      0.0000      0.0000   1500.9281    703.0000     54.8751
            1           2      0.0000      0.0143   1500.6012    703.0000     54.8533
            1           3      0.0000      0.0286   1500.3726    703.0000     54.8381
            1           4      0.0000      0.0429   1500.2555    703.0000     54.8304
            1           5      0.0000      0.0571   1500.2624    703.0000     54.8308
            1           6      0.0000      0.0714   1500.4051    703.0000     54.8403
            1           7      0.0000      0.0857   1500.6953    703.0000     54.8596
            1           8      0.0000      0.1000   1501.1449    703.0000     54.8895
            1           9      0.0000      0.1143   1501.7671    703.0000     54.9310
            1          10      0.0000      0.1286   1502.5777    703.0000     54.9851
            1          11      0.0000      0.1429   1503.5974    703.0000     55.0532
            1          12      0.0000      0.1571   1504.8546    703.0000     55.1373
            1          13      0.0000      0.1714   1506.3903    703.0000     55.2402
            1          14      0.0000      0.1857   1508.2651    703.0000     55.3663
            1          15      0.0000      0.2000   1510.5689    703.0000     55.5216
            2           1      0.0714      0.0000   1498.8460    703.0000     54.7367
            2           2      0.0714      0.0143   1498.2057    703.0000     54.6943
            2           3      0.0714      0.0286   1497.7403    703.0000     54.6634
            2           4      0.0714      0.0429   1497.4718    703.0000     54.6457
            2           5      0.0714      0.0571   1497.4200    703.0000     54.6422
            2           6      0.0714      0.0714   1497.6013    703.0000     54.6542
            2           7      0.0714      0.0857   1498.0293    703.0000     54.6826
            2           8      0.0714      0.1000   1498.7142    703.0000     54.7280
            2           9      0.0714      0.1143   1499.6625    703.0000     54.7909
            2          10      0.0714      0.1286   1500.8775    703.0000     54.8717
            2          11      0.0714      0.1429   1502.3586    703.0000     54.9704
            2          12      0.0714      0.1571   1504.1015    703.0000     55.0869
            2          13      0.0714      0.1714   1506.0971    703.0000     55.2205
            2          14      0.0714      0.1857   1508.3311    703.0000     55.3707
            2          15      0.0714      0.2000   1510.7817    703.0000     55.5360
            3           1      0.1429      0.0000   1496.5491    703.0000     54.5846
            3           2      0.1429      0.0143   1495.5523    703.0000     54.5188
            3           3      0.1429      0.0286   1494.7904    703.0000     54.4685
            3           4      0.1429      0.0429   1494.2926    703.0000     54.4357
            3           5      0.1429      0.0571   1494.0836    703.0000     54.4220
            3           6      0.1429      0.0714   1494.1829    703.0000     54.4285
            3           7      0.1429      0.0857   1494.6046    703.0000     54.4563
            3           8      0.1429      0.1000   1495.3567    703.0000     54.5059
            3           9      0.1429      0.1143   1496.4413    703.0000     54.5775
            3          10      0.1429      0.1286   1497.8538    703.0000     54.6710
            3          11      0.1429      0.1429   1499.5836    703.0000     54.7857
            3          12      0.1429      0.1571   1501.6137    703.0000     54.9208
            3          13      0.1429      0.1714   1503.9213    703.0000     55.0748
            3          14      0.1429      0.1857   1506.4776    703.0000     55.2461
            3          15      0.1429      0.2000   1509.2488    703.0000     55.4325
            4           1      0.2143      0.0000   1494.3039    703.0000     54.4365
            4           2      0.2143      0.0143   1492.9545    703.0000     54.3477
            4           3      0.2143      0.0286   1491.8903    703.0000     54.2778
            4           4      0.2143      0.0429   1491.1469    703.0000     54.2291
            4           5      0.2143      0.0571   1490.7540    703.0000     54.2033
            4           6      0.2143      0.0714   1490.7346    703.0000     54.2021
            4           7      0.2143      0.0857   1491.1045    703.0000     54.2263
            4           8      0.2143      0.1000   1491.8719    703.0000     54.2766
            4           9      0.2143      0.1143   1493.0371    703.0000     54.3531
            4          10      0.2143      0.1286   1494.5924    703.0000     54.4555
            4          11      0.2143      0.1429   1496.5222    703.0000     54.5829
            4          12      0.2143      0.1571   1498.8037    703.0000     54.7339
            4          13      0.2143      0.1714   1501.4073    703.0000     54.9070
            4          14      0.2143      0.1857   1504.2971    703.0000     55.0999
            4          15      0.2143      0.2000   1507.4324    703.0000     55.3102
            5           1      0.2857      0.0000   1492.3753    703.0000     54.3096
            5           2      0.2857      0.0143   1490.7216    703.0000     54.2012
            5           3      0.2857      0.0286   1489.3941    703.0000     54.1144
            5           4      0.2857      0.0429   1488.4337    703.0000     54.0517
            5           5      0.2857      0.0571   1487.8747    703.0000     54.0152
            5           6      0.2857      0.0714   1487.7435    703.0000     54.0067
            5           7      0.2857      0.0857   1488.0580    703.0000     54.0272
            5           8      0.2857      0.1000   1488.8272    703.0000     54.0773
            5           9      0.2857      0.1143   1490.0509    703.0000     54.1573
            5          10      0.2857      0.1286   1491.7195    703.0000     54.2666
            5          11      0.2857      0.1429   1493.8144    703.0000     54.4043
            5          12      0.2857      0.1571   1496.3089    703.0000     54.5688
            5          13      0.2857      0.1714   1499.1681    703.0000     54.7581
            5          14      0.2857      0.1857   1502.3508    703.0000     54.9699
            5          15      0.2857      0.2000   1505.8100    703.0000     55.2013
            6           1      0.3571      0.0000   1490.9323    703.0000     54.2150
            6           2      0.3571      0.0143   1489.0504    703.0000     54.0919
            6           3      0.3571      0.0286   1487.5248    703.0000     53.9924
            6           4      0.3571      0.0429   1486.4005    703.0000     53.9192
            6           5      0.3571      0.0571   1485.7152    703.0000     53.8747
            6           6      0.3571      0.0714   1485.4980    703.0000     53.8606
            6           7      0.3571      0.0857   1485.7687    703.0000     53.8782
            6           8      0.3571      0.1000   1486.5369    703.0000     53.9281
            6           9      0.3571      0.1143   1487.8023    703.0000     54.0105
            6          10      0.3571      0.1286   1489.5541    703.0000     54.1248
            6          11      0.3571      0.1429   1491.7718    703.0000     54.2700
            6          12      0.3571      0.1571   1494.4254    703.0000     54.4445
            6          13      0.3571      0.1714   1497.4768    703.0000     54.6460
            6          14      0.3571      0.1857   1500.8803    703.0000     54.8719
            6          15      0.3571      0.2000   1504.5843    703.0000     55.1192
            7           1      0.4286      0.0000   1490.0520    703.0000     54.1574
            7           2      0.4286      0.0143   1488.0309    703.0000     54.0254
            7           3      0.4286      0.0286   1486.3841    703.0000     53.9182
            7           4      0.4286      0.0429   1485.1595    703.0000     53.8386
            7           5      0.4286      0.0571   1484.3967    703.0000     53.7892
            7           6      0.4286      0.0714   1484.1266    703.0000     53.7717
            7           7      0.4286      0.0857   1484.3699    703.0000     53.7874
            7           8      0.4286      0.1000   1485.1372    703.0000     53.8372
            7           9      0.4286      0.1143   1486.4277    703.0000     53.9210
            7          10      0.4286      0.1286   1488.2301    703.0000     54.0384
            7          11      0.4286      0.1429   1490.5226    703.0000     54.1882
            7          12      0.4286      0.1571   1493.2735    703.0000     54.3687
            7          13      0.4286      0.1714   1496.4423    703.0000     54.5776
            7          14      0.4286      0.1857   1499.9809    703.0000     54.8121
            7          15      0.4286      0.2000   1503.8347    703.0000     55.0690
            8           1      0.5000      0.0000   1489.7575    703.0000     54.1381
            8           2      0.5000      0.0143   1487.6898    703.0000     54.0032
            8           3      0.5000      0.0286   1486.0024    703.0000     53.8934
            8           4      0.5000      0.0429   1484.7441    703.0000     53.8117
            8           5      0.5000      0.0571   1483.9554    703.0000     53.7606
            8           6      0.5000      0.0714   1483.6675    703.0000     53.7419
            8           7      0.5000      0.0857   1483.9017    703.0000     53.7571
            8           8      0.5000      0.1000   1484.6686    703.0000     53.8068
            8           9      0.5000      0.1143   1485.9674    703.0000     53.8911
            8          10      0.5000      0.1286   1487.7868    703.0000     54.0095
            8          11      0.5000      0.1429   1490.1043    703.0000     54.1608
            8          12      0.5000      0.1571   1492.8878    703.0000     54.3433
            8          13      0.5000      0.1714   1496.0959    703.0000     54.5547
            8          14      0.5000      0.1857   1499.6798    703.0000     54.7921
            8          15      0.5000      0.2000   1503.5838    703.0000     55.0522
            9           1      0.5714      0.0000   1490.0520    703.0000     54.1574
            9           2      0.5714      0.0143   1488.0308    703.0000     54.0254
            9           3      0.5714      0.0286   1486.3840    703.0000     53.9182
            9           4      0.5714      0.0429   1485.1593    703.0000     53.8386
            9           5      0.5714      0.0571   1484.3965    703.0000     53.7892
            9           6      0.5714      0.0714   1484.1264    703.0000     53.7717
            9           7      0.5714      0.0857   1484.3698    703.0000     53.7874
            9           8      0.5714      0.1000   1485.1370    703.0000     53.8372
            9           9      0.5714      0.1143   1486.4275    703.0000     53.9210
            9          10      0.5714      0.1286   1488.2299    703.0000     54.0384
            9          11      0.5714      0.1429   1490.5224    703.0000     54.1882
            9          12      0.5714      0.1571   1493.2734    703.0000     54.3687
            9          13      0.5714      0.1714   1496.4422    703.0000     54.5776
            9          14      0.5714      0.1857   1499.9808    703.0000     54.8121
            9          15      0.5714      0.2000   1503.8347    703.0000     55.0690
           10           1      0.6429      0.0000   1490.9321    703.0000     54.2150
           10           2      0.6429      0.0143   1489.0502    703.0000     54.0919
           10           3      0.6429      0.0286   1487.5245    703.0000     53.9924
           10           4      0.6429      0.0429   1486.4002    703.0000     53.9192
           10           5      0.6429      0.0571   1485.7149    703.0000     53.8747
           10           6      0.6429      0.0714   1485.4977    703.0000     53.8606
           10           7      0.6429      0.0857   1485.7683    703.0000     53.8782
           10           8      0.6429      0.1000   1486.5366    703.0000     53.9281
           10           9      0.6429      0.1143   1487.8020    703.0000     54.0105
           10          10      0.6429      0.1286   1489.5538    703.0000     54.1248
           10          11      0.6429      0.1429   1491.7715    703.0000     54.2700
           10          12      0.6429      0.1571   1494.4252    703.0000     54.4445
           10          13      0.6429      0.1714   1497.4766    703.0000     54.6460
           10          14      0.6429      0.1857   1500.8801    703.0000     54.8719
           10          15      0.6429      0.2000   1504.5841    703.0000     55.1192
           11           1      0.7143      0.0000   1492.3749    703.0000     54.3096
           11           2      0.7143      0.0143   1490.7211    703.0000     54.2012
           11           3      0.7143      0.0286   1489.3936    703.0000     54.1143
           11           4      0.7143      0.0429   1488.4332    703.0000     54.0516
           11           5      0.7143      0.0571   1487.8742    703.0000     54.0152
           11           6      0.7143      0.0714   1487.7429    703.0000     54.0066
           11           7      0.7143      0.0857   1488.0574    703.0000     54.0271
           11           8      0.7143      0.1000   1488.8266    703.0000     54.0773
           11           9      0.7143      0.1143   1490.0503    703.0000     54.1573
           11          10      0.7143      0.1286   1491.7189    703.0000     54.2666
           11          11      0.7143      0.1429   1493.8139    703.0000     54.4042
           11          12      0.7143      0.1571   1496.3084    703.0000     54.5687
           11          13      0.7143      0.1714   1499.1677    703.0000     54.7581
           11          14      0.7143      0.1857   1502.3504    703.0000     54.9699
           11          15      0.7143      0.2000   1505.8097    703.0000     55.2013
           12           1      0.7857      0.0000   1494.3032    703.0000     54.4364
           12           2      0.7857      0.0143   1492.9537    703.0000     54.3476
           12           3      0.7857      0.0286   1491.8895    703.0000     54.2778
           12           4      0.7857      0.0429   1491.1460    703.0000     54.2290
           12           5      0.7857      0.0571   1490.7530    703.0000     54.2033
           12           6      0.7857      0.0714   1490.7336    703.0000     54.2020
           12           7      0.7857      0.0857   1491.1035    703.0000     54.2262
           12           8      0.7857      0.1000   1491.8709    703.0000     54.2765
           12           9      0.7857      0.1143   1493.0361    703.0000     54.3531
           12          10      0.7857      0.1286   1494.5914    703.0000     54.4554
           12          11      0.7857      0.1429   1496.5213    703.0000     54.5828
           12          12      0.7857      0.1571   1498.8029    703.0000     54.7339
           12          13      0.7857      0.1714   1501.4065    703.0000     54.9070
           12          14      0.7857      0.1857   1504.2965    703.0000     55.0999
           12          15      0.7857      0.2000   1507.4318    703.0000     55.3102
           13           1      0.8571      0.0000   1496.5481    703.0000     54.5846
           13           2      0.8571      0.0143   1495.5512    703.0000     54.5187
           13           3      0.8571      0.0286   1494.7892    703.0000     54.4685
           13           4      0.8571      0.0429   1494.2913    703.0000     54.4357
           13           5      0.8571      0.0571   1494.0821    703.0000     54.4219
           13           6      0.8571      0.0714   1494.1814    703.0000     54.4284
           13           7      0.8571      0.0857   1494.6030    703.0000     54.4562
           13           8      0.8571      0.1000   1495.3552    703.0000     54.5058
           13           9      0.8571      0.1143   1496.4398    703.0000     54.5774
           13          10      0.8571      0.1286   1497.8523    703.0000     54.6709
           13          11      0.8571      0.1429   1499.5822    703.0000     54.7856
           13          12      0.8571      0.1571   1501.6125    703.0000     54.9207
           13          13      0.8571      0.1714   1503.9201    703.0000     55.0747
           13          14      0.8571      0.1857   1506.4766    703.0000     55.2460
           13          15      0.8571      0.2000   1509.2479    703.0000     55.4325
           14           1      0.9286      0.0000   1498.8453    703.0000     54.7367
           14           2      0.9286      0.0143   1498.2050    703.0000     54.6942
           14           3      0.9286      0.0286   1497.7394    703.0000     54.6634
           14           4      0.9286      0.0429   1497.4709    703.0000     54.6456
           14           5      0.9286      0.0571   1497.4190    703.0000     54.6422
           14           6      0.9286      0.0714   1497.6003    703.0000     54.6542
           14           7      0.9286      0.0857   1498.0283    703.0000     54.6825
           14           8      0.9286      0.1000   1498.7131    703.0000     54.7279
           14           9      0.9286      0.1143   1499.6615    703.0000     54.7909
           14          10      0.9286      0.1286   1500.8765    703.0000     54.8717
           14          11      0.9286      0.1429   1502.3577    703.0000     54.9704
           14          12      0.9286      0.1571   1504.1006    703.0000     55.0868
           14          13      0.9286      0.1714   1506.0963    703.0000     55.2205
           14          14      0.9286      0.1857   1508.3304    703.0000     55.3707
           14          15      0.9286      0.2000   1510.7811    703.0000     55.5360
           15           1      1.0000      0.0000   1500.9278    703.0000     54.8751
           15           2      1.0000      0.0143   1500.6009    703.0000     54.8533
           15           3      1.0000      0.0286   1500.3723    703.0000     54.8381
           15           4      1.0000      0.0429   1500.2552    703.0000     54.8303
           15           5      1.0000      0.0571   1500.2620    703.0000     54.8308
           15           6      1.0000      0.0714   1500.4047    703.0000     54.8403
           15           7      1.0000      0.0857   1500.6949    703.0000     54.8596
           15           8      1.0000      0.1000   1501.1445    703.0000     54.8895
           15           9      1.0000      0.1143   1501.7667    703.0000     54.9310
           15          10      1.0000      0.1286   1502.5774    703.0000     54.9850
           15          11      1.0000      0.1429   1503.5971    703.0000     55.0531
           15          12      1.0000      0.1571   1504.8543    703.0000     55.1372
           15          13      1.0000      0.1714   1506.3900    703.0000     55.2402
           15          14      1.0000      0.1857   1508.2648    703.0000     55.3662
           15          15      1.0000      0.2000   1510.5687    703.0000     55.5216
