 ====================================================================================
               Transient state solution for a 2D rectangular plate
                    for applications in steel reheating
                 e.g. Reheating furnaces for rolling processing
 ====================================================================================
 Author: Dickson Alves de Souza

 Based on lectures by professor Roberto Parreiras Tavares

 and book Numerical Heat Transfer and Fluid Flow
 by Suhas V. Patankar (1980)

 Federal University of Minas Gerais (UFMG)
 October 26th, 2017
 ====================================================================================
                              Input parameters:

 Lenght in X direction (meters):           1.0000
 Lenght in Y direction (meters):           0.2000
 Nodes in X direction:                         15
 Nodes in Y direction:                         15
 ====================================================================================

                       STAGE                1/  5
                       START Time:         0.0000
                       END Time:        1140.0000
                       Iterations:              710

 ====================================================================================
 Temperature of fluid at left face (T left):             1223.1500
 Temperature of fluid at right face (T right):           1223.1500
 Temperature of fluid at bottom face (T bottom):         1223.1500
 Temperature of fluid at top face (T top):               1223.1500
 ------------------------------------------------------------------------------------
 Heat transfer coefficient at left face (H left):          50.0000
 Heat transfer coefficient at right face (H right):        50.0000
 Heat transfer coefficient at bottom face (H bottom):       8.0000
 Heat transfer coefficient at top face (H top):           150.0000
 ====================================================================================


 ====================================================================================

                       STAGE                2/  5
                       START Time:      1140.0000
                       END Time:        3060.0000
                       Iterations:              710

 ====================================================================================
 Temperature of fluid at left face (T left):             1423.1500
 Temperature of fluid at right face (T right):           1423.1500
 Temperature of fluid at bottom face (T bottom):         1423.1500
 Temperature of fluid at top face (T top):               1423.1500
 ------------------------------------------------------------------------------------
 Heat transfer coefficient at left face (H left):          50.0000
 Heat transfer coefficient at right face (H right):        50.0000
 Heat transfer coefficient at bottom face (H bottom):       8.0000
 Heat transfer coefficient at top face (H top):           150.0000
 ====================================================================================


 ====================================================================================

                       STAGE                3/  5
                       START Time:      3060.0000
                       END Time:        4980.0000
                       Iterations:              710

 ====================================================================================
 Temperature of fluid at left face (T left):             1513.1500
 Temperature of fluid at right face (T right):           1513.1500
 Temperature of fluid at bottom face (T bottom):         1513.1500
 Temperature of fluid at top face (T top):               1513.1500
 ------------------------------------------------------------------------------------
 Heat transfer coefficient at left face (H left):          50.0000
 Heat transfer coefficient at right face (H right):        50.0000
 Heat transfer coefficient at bottom face (H bottom):       8.0000
 Heat transfer coefficient at top face (H top):           150.0000
 ====================================================================================


 ====================================================================================

                       STAGE                4/  5
                       START Time:      4980.0000
                       END Time:        8400.0000
                       Iterations:              710

 ====================================================================================
 Temperature of fluid at left face (T left):             1503.1500
 Temperature of fluid at right face (T right):           1503.1500
 Temperature of fluid at bottom face (T bottom):         1503.1500
 Temperature of fluid at top face (T top):               1523.1500
 ------------------------------------------------------------------------------------
 Heat transfer coefficient at left face (H left):          50.0000
 Heat transfer coefficient at right face (H right):        50.0000
 Heat transfer coefficient at bottom face (H bottom):       8.0000
 Heat transfer coefficient at top face (H top):           150.0000
 ====================================================================================


 SOLUTION of LINEAR SYSTEM: TDMA (tri-diagonal matrix algorithm)
      ADI approach employed in solution.
 Tolerance:       0.0010

 ====================================================================================
                    Calculation Results
 Current time:    7780.0000000000000       seconds
 Maximum Temperature :    1514.4639732290027
 Minimum Temperature :    1499.5385000907270
 Average(algebraic, non-weigthed) Temperature :    1505.1153135263839
 ====================================================================================
            I           J        X(m)        Y(m)        T(K)  Cp(J/kg.K) K(W/sq-m.K)
 ====================================================================================
            1           1      0.0000      0.0000   1503.1887    703.0000     55.0258
            1           2      0.0000      0.0143   1503.2171    703.0000     55.0277
            1           3      0.0000      0.0286   1503.2967    703.0000     55.0331
            1           4      0.0000      0.0429   1503.4349    703.0000     55.0423
            1           5      0.0000      0.0571   1503.6394    703.0000     55.0560
            1           6      0.0000      0.0714   1503.9183    703.0000     55.0746
            1           7      0.0000      0.0857   1504.2806    703.0000     55.0988
            1           8      0.0000      0.1000   1504.7371    703.0000     55.1294
            1           9      0.0000      0.1143   1505.3006    703.0000     55.1671
            1          10      0.0000      0.1286   1505.9881    703.0000     55.2132
            1          11      0.0000      0.1429   1506.8227    703.0000     55.2693
            1          12      0.0000      0.1571   1507.8363    703.0000     55.3374
            1          13      0.0000      0.1714   1509.0747    703.0000     55.4208
            1          14      0.0000      0.1857   1510.6042    703.0000     55.5240
            1          15      0.0000      0.2000   1512.5217    703.0000     55.6537
            2           1      0.0714      0.0000   1503.0776    703.0000     55.0184
            2           2      0.0714      0.0143   1503.1028    703.0000     55.0201
            2           3      0.0714      0.0286   1503.2146    703.0000     55.0276
            2           4      0.0714      0.0429   1503.4243    703.0000     55.0416
            2           5      0.0714      0.0571   1503.7422    703.0000     55.0628
            2           6      0.0714      0.0714   1504.1779    703.0000     55.0920
            2           7      0.0714      0.0857   1504.7399    703.0000     55.1296
            2           8      0.0714      0.1000   1505.4359    703.0000     55.1762
            2           9      0.0714      0.1143   1506.2723    703.0000     55.2323
            2          10      0.0714      0.1286   1507.2548    703.0000     55.2983
            2          11      0.0714      0.1429   1508.3874    703.0000     55.3745
            2          12      0.0714      0.1571   1509.6729    703.0000     55.4611
            2          13      0.0714      0.1714   1511.1114    703.0000     55.5583
            2          14      0.0714      0.1857   1512.6998    703.0000     55.6658
            2          15      0.0714      0.2000   1514.4289    703.0000     55.7831
            3           1      0.1429      0.0000   1502.6101    703.0000     54.9872
            3           2      0.1429      0.0143   1502.5673    703.0000     54.9844
            3           3      0.1429      0.0286   1502.6333    703.0000     54.9888
            3           4      0.1429      0.0429   1502.8211    703.0000     55.0013
            3           5      0.1429      0.0571   1503.1422    703.0000     55.0227
            3           6      0.1429      0.0714   1503.6057    703.0000     55.0537
            3           7      0.1429      0.0857   1504.2186    703.0000     55.0947
            3           8      0.1429      0.1000   1504.9852    703.0000     55.1460
            3           9      0.1429      0.1143   1505.9075    703.0000     55.2078
            3          10      0.1429      0.1286   1506.9846    703.0000     55.2801
            3          11      0.1429      0.1429   1508.2130    703.0000     55.3627
            3          12      0.1429      0.1571   1509.5861    703.0000     55.4553
            3          13      0.1429      0.1714   1511.0944    703.0000     55.5571
            3          14      0.1429      0.1857   1512.7255    703.0000     55.6675
            3          15      0.1429      0.2000   1514.4640    703.0000     55.7855
            4           1      0.2143      0.0000   1501.9511    703.0000     54.9433
            4           2      0.2143      0.0143   1501.8065    703.0000     54.9336
            4           3      0.2143      0.0286   1501.7883    703.0000     54.9324
            4           4      0.2143      0.0429   1501.9114    703.0000     54.9406
            4           5      0.2143      0.0571   1502.1885    703.0000     54.9591
            4           6      0.2143      0.0714   1502.6290    703.0000     54.9885
            4           7      0.2143      0.0857   1503.2398    703.0000     55.0293
            4           8      0.2143      0.1000   1504.0244    703.0000     55.0817
            4           9      0.2143      0.1143   1504.9830    703.0000     55.1459
            4          10      0.2143      0.1286   1506.1127    703.0000     55.2216
            4          11      0.2143      0.1429   1507.4072    703.0000     55.3085
            4          12      0.2143      0.1571   1508.8572    703.0000     55.4061
            4          13      0.2143      0.1714   1510.4504    703.0000     55.5136
            4          14      0.2143      0.1857   1512.1717    703.0000     55.6300
            4          15      0.2143      0.2000   1514.0038    703.0000     55.7542
            5           1      0.2857      0.0000   1501.2826    703.0000     54.8987
            5           2      0.2857      0.0143   1501.0334    703.0000     54.8821
            5           3      0.2857      0.0286   1500.9257    703.0000     54.8749
            5           4      0.2857      0.0429   1500.9763    703.0000     54.8783
            5           5      0.2857      0.0571   1501.1989    703.0000     54.8931
            5           6      0.2857      0.0714   1501.6042    703.0000     54.9201
            5           7      0.2857      0.0857   1502.1992    703.0000     54.9598
            5           8      0.2857      0.1000   1502.9875    703.0000     55.0124
            5           9      0.2857      0.1143   1503.9689    703.0000     55.0780
            5          10      0.2857      0.1286   1505.1395    703.0000     55.1563
            5          11      0.2857      0.1429   1506.4919    703.0000     55.2470
            5          12      0.2857      0.1571   1508.0152    703.0000     55.3494
            5          13      0.2857      0.1714   1509.6954    703.0000     55.4626
            5          14      0.2857      0.1857   1511.5156    703.0000     55.5856
            5          15      0.2857      0.2000   1513.4565    703.0000     55.7171
            6           1      0.3571      0.0000   1500.7338    703.0000     54.8622
            6           2      0.3571      0.0143   1500.3985    703.0000     54.8399
            6           3      0.3571      0.0286   1500.2165    703.0000     54.8278
            6           4      0.3571      0.0429   1500.2059    703.0000     54.8271
            6           5      0.3571      0.0571   1500.3819    703.0000     54.8388
            6           6      0.3571      0.0714   1500.7557    703.0000     54.8636
            6           7      0.3571      0.0857   1501.3351    703.0000     54.9022
            6           8      0.3571      0.1000   1502.1237    703.0000     54.9548
            6           9      0.3571      0.1143   1503.1212    703.0000     55.0213
            6          10      0.3571      0.1286   1504.3233    703.0000     55.1017
            6          11      0.3571      0.1429   1505.7217    703.0000     55.1954
            6          12      0.3571      0.1571   1507.3046    703.0000     55.3016
            6          13      0.3571      0.1714   1509.0567    703.0000     55.4196
            6          14      0.3571      0.1857   1510.9596    703.0000     55.5480
            6          15      0.3571      0.2000   1512.9924    703.0000     55.6856
            7           1      0.4286      0.0000   1500.3803    703.0000     54.8387
            7           2      0.4286      0.0143   1499.9894    703.0000     54.8127
            7           3      0.4286      0.0286   1499.7593    703.0000     54.7974
            7           4      0.4286      0.0429   1499.7092    703.0000     54.7941
            7           5      0.4286      0.0571   1499.8547    703.0000     54.8037
            7           6      0.4286      0.0714   1500.2078    703.0000     54.8272
            7           7      0.4286      0.0857   1500.7766    703.0000     54.8650
            7           8      0.4286      0.1000   1501.5649    703.0000     54.9175
            7           9      0.4286      0.1143   1502.5723    703.0000     54.9847
            7          10      0.4286      0.1286   1503.7943    703.0000     55.0663
            7          11      0.4286      0.1429   1505.2222    703.0000     55.1619
            7          12      0.4286      0.1571   1506.8434    703.0000     55.2707
            7          13      0.4286      0.1714   1508.6419    703.0000     55.3916
            7          14      0.4286      0.1857   1510.5984    703.0000     55.5236
            7          15      0.4286      0.2000   1512.6910    703.0000     55.6652
            8           1      0.5000      0.0000   1500.2588    703.0000     54.8306
            8           2      0.5000      0.0143   1499.8489    703.0000     54.8033
            8           3      0.5000      0.0286   1499.6023    703.0000     54.7869
            8           4      0.5000      0.0429   1499.5385    703.0000     54.7827
            8           5      0.5000      0.0571   1499.6735    703.0000     54.7917
            8           6      0.5000      0.0714   1500.0195    703.0000     54.8147
            8           7      0.5000      0.0857   1500.5846    703.0000     54.8522
            8           8      0.5000      0.1000   1501.3727    703.0000     54.9047
            8           9      0.5000      0.1143   1502.3835    703.0000     54.9721
            8          10      0.5000      0.1286   1503.6123    703.0000     55.0541
            8          11      0.5000      0.1429   1505.0503    703.0000     55.1504
            8          12      0.5000      0.1571   1506.6847    703.0000     55.2600
            8          13      0.5000      0.1714   1508.4992    703.0000     55.3820
            8          14      0.5000      0.1857   1510.4741    703.0000     55.5152
            8          15      0.5000      0.2000   1512.5872    703.0000     55.6582
            9           1      0.5714      0.0000   1500.3802    703.0000     54.8387
            9           2      0.5714      0.0143   1499.9893    703.0000     54.8127
            9           3      0.5714      0.0286   1499.7593    703.0000     54.7974
            9           4      0.5714      0.0429   1499.7091    703.0000     54.7940
            9           5      0.5714      0.0571   1499.8546    703.0000     54.8037
            9           6      0.5714      0.0714   1500.2077    703.0000     54.8272
            9           7      0.5714      0.0857   1500.7765    703.0000     54.8650
            9           8      0.5714      0.1000   1501.5648    703.0000     54.9175
            9           9      0.5714      0.1143   1502.5722    703.0000     54.9847
            9          10      0.5714      0.1286   1503.7942    703.0000     55.0663
            9          11      0.5714      0.1429   1505.2221    703.0000     55.1619
            9          12      0.5714      0.1571   1506.8434    703.0000     55.2706
            9          13      0.5714      0.1714   1508.6419    703.0000     55.3916
            9          14      0.5714      0.1857   1510.5984    703.0000     55.5236
            9          15      0.5714      0.2000   1512.6909    703.0000     55.6652
           10           1      0.6429      0.0000   1500.7336    703.0000     54.8622
           10           2      0.6429      0.0143   1500.3983    703.0000     54.8399
           10           3      0.6429      0.0286   1500.2163    703.0000     54.8278
           10           4      0.6429      0.0429   1500.2057    703.0000     54.8271
           10           5      0.6429      0.0571   1500.3817    703.0000     54.8388
           10           6      0.6429      0.0714   1500.7555    703.0000     54.8636
           10           7      0.6429      0.0857   1501.3349    703.0000     54.9022
           10           8      0.6429      0.1000   1502.1235    703.0000     54.9547
           10           9      0.6429      0.1143   1503.1210    703.0000     55.0213
           10          10      0.6429      0.1286   1504.3231    703.0000     55.1017
           10          11      0.6429      0.1429   1505.7215    703.0000     55.1954
           10          12      0.6429      0.1571   1507.3044    703.0000     55.3016
           10          13      0.6429      0.1714   1509.0565    703.0000     55.4196
           10          14      0.6429      0.1857   1510.9594    703.0000     55.5480
           10          15      0.6429      0.2000   1512.9923    703.0000     55.6856
           11           1      0.7143      0.0000   1501.2823    703.0000     54.8987
           11           2      0.7143      0.0143   1501.0331    703.0000     54.8821
           11           3      0.7143      0.0286   1500.9254    703.0000     54.8749
           11           4      0.7143      0.0429   1500.9759    703.0000     54.8783
           11           5      0.7143      0.0571   1501.1985    703.0000     54.8931
           11           6      0.7143      0.0714   1501.6038    703.0000     54.9201
           11           7      0.7143      0.0857   1502.1988    703.0000     54.9598
           11           8      0.7143      0.1000   1502.9871    703.0000     55.0124
           11           9      0.7143      0.1143   1503.9685    703.0000     55.0780
           11          10      0.7143      0.1286   1505.1391    703.0000     55.1563
           11          11      0.7143      0.1429   1506.4915    703.0000     55.2470
           11          12      0.7143      0.1571   1508.0149    703.0000     55.3494
           11          13      0.7143      0.1714   1509.6951    703.0000     55.4626
           11          14      0.7143      0.1857   1511.5153    703.0000     55.5856
           11          15      0.7143      0.2000   1513.4562    703.0000     55.7171
           12           1      0.7857      0.0000   1501.9507    703.0000     54.9432
           12           2      0.7857      0.0143   1501.8060    703.0000     54.9336
           12           3      0.7857      0.0286   1501.7877    703.0000     54.9324
           12           4      0.7857      0.0429   1501.9108    703.0000     54.9406
           12           5      0.7857      0.0571   1502.1878    703.0000     54.9590
           12           6      0.7857      0.0714   1502.6283    703.0000     54.9884
           12           7      0.7857      0.0857   1503.2391    703.0000     55.0292
           12           8      0.7857      0.1000   1504.0236    703.0000     55.0816
           12           9      0.7857      0.1143   1504.9823    703.0000     55.1458
           12          10      0.7857      0.1286   1506.1120    703.0000     55.2215
           12          11      0.7857      0.1429   1507.4065    703.0000     55.3085
           12          12      0.7857      0.1571   1508.8566    703.0000     55.4061
           12          13      0.7857      0.1714   1510.4498    703.0000     55.5136
           12          14      0.7857      0.1857   1512.1712    703.0000     55.6300
           12          15      0.7857      0.2000   1514.0034    703.0000     55.7542
           13           1      0.8571      0.0000   1502.6093    703.0000     54.9872
           13           2      0.8571      0.0143   1502.5664    703.0000     54.9843
           13           3      0.8571      0.0286   1502.6322    703.0000     54.9887
           13           4      0.8571      0.0429   1502.8200    703.0000     55.0012
           13           5      0.8571      0.0571   1503.1410    703.0000     55.0227
           13           6      0.8571      0.0714   1503.6045    703.0000     55.0536
           13           7      0.8571      0.0857   1504.2173    703.0000     55.0946
           13           8      0.8571      0.1000   1504.9839    703.0000     55.1459
           13           9      0.8571      0.1143   1505.9063    703.0000     55.2077
           13          10      0.8571      0.1286   1506.9834    703.0000     55.2801
           13          11      0.8571      0.1429   1508.2119    703.0000     55.3627
           13          12      0.8571      0.1571   1509.5850    703.0000     55.4552
           13          13      0.8571      0.1714   1511.0935    703.0000     55.5571
           13          14      0.8571      0.1857   1512.7247    703.0000     55.6675
           13          15      0.8571      0.2000   1514.4633    703.0000     55.7855
           14           1      0.9286      0.0000   1503.0762    703.0000     55.0183
           14           2      0.9286      0.0143   1503.1013    703.0000     55.0200
           14           3      0.9286      0.0286   1503.2129    703.0000     55.0275
           14           4      0.9286      0.0429   1503.4224    703.0000     55.0415
           14           5      0.9286      0.0571   1503.7402    703.0000     55.0627
           14           6      0.9286      0.0714   1504.1758    703.0000     55.0918
           14           7      0.9286      0.0857   1504.7378    703.0000     55.1294
           14           8      0.9286      0.1000   1505.4337    703.0000     55.1761
           14           9      0.9286      0.1143   1506.2702    703.0000     55.2322
           14          10      0.9286      0.1286   1507.2527    703.0000     55.2982
           14          11      0.9286      0.1429   1508.3855    703.0000     55.3744
           14          12      0.9286      0.1571   1509.6711    703.0000     55.4610
           14          13      0.9286      0.1714   1511.1098    703.0000     55.5582
           14          14      0.9286      0.1857   1512.6984    703.0000     55.6657
           14          15      0.9286      0.2000   1514.4277    703.0000     55.7830
           15           1      1.0000      0.0000   1503.1882    703.0000     55.0258
           15           2      1.0000      0.0143   1503.2164    703.0000     55.0277
           15           3      1.0000      0.0286   1503.2959    703.0000     55.0330
           15           4      1.0000      0.0429   1503.4340    703.0000     55.0422
           15           5      1.0000      0.0571   1503.6385    703.0000     55.0559
           15           6      1.0000      0.0714   1503.9173    703.0000     55.0745
           15           7      1.0000      0.0857   1504.2797    703.0000     55.0988
           15           8      1.0000      0.1000   1504.7361    703.0000     55.1293
           15           9      1.0000      0.1143   1505.2997    703.0000     55.1671
           15          10      1.0000      0.1286   1505.9872    703.0000     55.2132
           15          11      1.0000      0.1429   1506.8218    703.0000     55.2692
           15          12      1.0000      0.1571   1507.8355    703.0000     55.3373
           15          13      1.0000      0.1714   1509.0740    703.0000     55.4207
           15          14      1.0000      0.1857   1510.6036    703.0000     55.5240
           15          15      1.0000      0.2000   1512.5212    703.0000     55.6537
